#                                                           
#   __   __     _        __  __       ____      U  ___  u   
#   \ \ / / U  /"\  U u |" \/ "| u U | __") u    \/"_ \/    
#    \ V /   \/ _ \/   \| |\/| |/   \|  _ \/     | | | |    
#   U_|"|_u  / ___ \    | |  | |     | |_) | .-,_| |_| |    
#     |_|   /_/   \_\   |_|  |_|     |____/   \_)-\___/     
# .-,//|(_   \\    >>  <<,-,,-.     _|| \\_        \\       
#  \_) (__) (__)  (__)  (./  \.)   (__) (__)      (__)      
#                                                           
#                                                           
#              GPL Version 4.1.4 Revision 76                
#                        MPI Build                          
#                http://www.yambo-code.org                  
#
# BSK|Identifier              :9599
#    |Dimension               :5098
#    |Bands                   :524 - 624
#    |Exchange           [res]: yes
#    |Correlation        [res]: no
#    |Kernel`s coupling       : no
#    |Exchange           [cpl]: no
#    |Correlation        [cpl]: no
#    |W interaction is bare   : no
#    |ALDA kernel in R-space  : no
#    |RL vectors    [exchange]:55207
#    |E/h energy range    [ev]:-1.000000 - -1.000000
#    |Coupling range     [o/o]: 100.0000 -  100.0000
#
# Electron-Hole pairs that contributes to Excitonic State 4 more than 5%
#
#  E    [eV]  Amplitude
#  
  2.329     0.5089E-3
  2.330     0.5112E-3
  2.332     0.5134E-3
  2.333     0.5157E-3
  2.334     0.5181E-3
  2.335     0.5204E-3
  2.336     0.5227E-3
  2.337     0.5251E-3
  2.338     0.5275E-3
  2.339     0.5299E-3
  2.341     0.5323E-3
  2.342     0.5347E-3
  2.343     0.5372E-3
  2.344     0.5397E-3
  2.345     0.5421E-3
  2.346     0.5446E-3
  2.347     0.5472E-3
  2.348     0.5497E-3
  2.349     0.5522E-3
  2.351     0.5548E-3
  2.352     0.5574E-3
  2.353     0.5600E-3
  2.354     0.5626E-3
  2.355     0.5653E-3
  2.356     0.5679E-3
  2.357     0.5706E-3
  2.358     0.5733E-3
  2.360     0.5760E-3
  2.361     0.5788E-3
  2.362     0.5815E-3
  2.363     0.5843E-3
  2.364     0.5871E-3
  2.365     0.5899E-3
  2.366     0.5928E-3
  2.367     0.5956E-3
  2.368     0.5985E-3
  2.370     0.6014E-3
  2.371     0.6043E-3
  2.372     0.6073E-3
  2.373     0.6102E-3
  2.374     0.6132E-3
  2.375     0.6162E-3
  2.376     0.6193E-3
  2.377     0.6223E-3
  2.379     0.6254E-3
  2.380     0.6285E-3
  2.381     0.6316E-3
  2.382     0.6348E-3
  2.383     0.6379E-3
  2.384     0.6411E-3
  2.385     0.6443E-3
  2.386     0.6476E-3
  2.387     0.6508E-3
  2.389     0.6541E-3
  2.390     0.6574E-3
  2.391     0.6608E-3
  2.392     0.6641E-3
  2.393     0.6675E-3
  2.394     0.6710E-3
  2.395     0.6744E-3
  2.396     0.6779E-3
  2.398     0.6814E-3
  2.399     0.6849E-3
  2.400     0.6884E-3
  2.401     0.6920E-3
  2.402     0.6956E-3
  2.403     0.6993E-3
  2.404     0.7029E-3
  2.405     0.7066E-3
  2.406     0.7103E-3
  2.408     0.7141E-3
  2.409     0.7179E-3
  2.410     0.7217E-3
  2.411     0.7255E-3
  2.412     0.7294E-3
  2.413     0.7333E-3
  2.414     0.7372E-3
  2.415     0.7412E-3
  2.417     0.7452E-3
  2.418     0.7492E-3
  2.419     0.7533E-3
  2.420     0.7574E-3
  2.421     0.7615E-3
  2.422     0.7657E-3
  2.423     0.7699E-3
  2.424     0.7741E-3
  2.425     0.7784E-3
  2.427     0.7827E-3
  2.428     0.7871E-3
  2.429     0.7914E-3
  2.430     0.7958E-3
  2.431     0.8003E-3
  2.432     0.8048E-3
  2.433     0.8093E-3
  2.434     0.8139E-3
  2.436     0.8185E-3
  2.437     0.8231E-3
  2.438     0.8278E-3
  2.439     0.8325E-3
  2.440     0.8373E-3
  2.441     0.8421E-3
  2.442     0.8469E-3
  2.443     0.8518E-3
  2.444     0.8567E-3
  2.446     0.8617E-3
  2.447     0.8667E-3
  2.448     0.8718E-3
  2.449     0.8769E-3
  2.450     0.8821E-3
  2.451     0.8872E-3
  2.452     0.8925E-3
  2.453     0.8978E-3
  2.454     0.9031E-3
  2.456     0.9085E-3
  2.457     0.9139E-3
  2.458     0.9194E-3
  2.459     0.9249E-3
  2.460     0.9305E-3
  2.461     0.9361E-3
  2.462     0.9418E-3
  2.463     0.9476E-3
  2.465     0.9533E-3
  2.466     0.9592E-3
  2.467     0.9651E-3
  2.468     0.9710E-3
  2.469     0.9770E-3
  2.470     0.9831E-3
  2.471     0.9892E-3
  2.472     0.9954E-3
  2.473     0.1002E-2
  2.475     0.1008E-2
  2.476     0.1014E-2
  2.477     0.1021E-2
  2.478     0.1027E-2
  2.479     0.1034E-2
  2.480     0.1040E-2
  2.481     0.1047E-2
  2.482     0.1054E-2
  2.484     0.1060E-2
  2.485     0.1067E-2
  2.486     0.1074E-2
  2.487     0.1081E-2
  2.488     0.1088E-2
  2.489     0.1095E-2
  2.490     0.1103E-2
  2.491     0.1110E-2
  2.492     0.1117E-2
  2.494     0.1125E-2
  2.495     0.1132E-2
  2.496     0.1140E-2
  2.497     0.1147E-2
  2.498     0.1155E-2
  2.499     0.1163E-2
  2.500     0.1171E-2
  2.501     0.1179E-2
  2.503     0.1187E-2
  2.504     0.1195E-2
  2.505     0.1203E-2
  2.506     0.1211E-2
  2.507     0.1220E-2
  2.508     0.1228E-2
  2.509     0.1237E-2
  2.510     0.1245E-2
  2.511     0.1254E-2
  2.513     0.1263E-2
  2.514     0.1272E-2
  2.515     0.1281E-2
  2.516     0.1290E-2
  2.517     0.1299E-2
  2.518     0.1308E-2
  2.519     0.1318E-2
  2.520     0.1327E-2
  2.522     0.1337E-2
  2.523     0.1346E-2
  2.524     0.1356E-2
  2.525     0.1366E-2
  2.526     0.1376E-2
  2.527     0.1386E-2
  2.528     0.1397E-2
  2.529     0.1407E-2
  2.530     0.1417E-2
  2.532     0.1428E-2
  2.533     0.1439E-2
  2.534     0.1450E-2
  2.535     0.1460E-2
  2.536     0.1472E-2
  2.537     0.1483E-2
  2.538     0.1494E-2
  2.539     0.1506E-2
  2.541     0.1517E-2
  2.542     0.1529E-2
  2.543     0.1541E-2
  2.544     0.1553E-2
  2.545     0.1565E-2
  2.546     0.1577E-2
  2.547     0.1590E-2
  2.548     0.1602E-2
  2.549     0.1615E-2
  2.551     0.1628E-2
  2.552     0.1641E-2
  2.553     0.1654E-2
  2.554     0.1668E-2
  2.555     0.1681E-2
  2.556     0.1695E-2
  2.557     0.1709E-2
  2.558     0.1723E-2
  2.560     0.1737E-2
  2.561     0.1751E-2
  2.562     0.1766E-2
  2.563     0.1781E-2
  2.564     0.1796E-2
  2.565     0.1811E-2
  2.566     0.1826E-2
  2.567     0.1842E-2
  2.568     0.1857E-2
  2.570     0.1873E-2
  2.571     0.1889E-2
  2.572     0.1906E-2
  2.573     0.1922E-2
  2.574     0.1939E-2
  2.575     0.1956E-2
  2.576     0.1973E-2
  2.577     0.1991E-2
  2.579     0.2008E-2
  2.580     0.2026E-2
  2.581     0.2044E-2
  2.582     0.2063E-2
  2.583     0.2081E-2
  2.584     0.2100E-2
  2.585     0.2119E-2
  2.586     0.2139E-2
  2.587     0.2158E-2
  2.589     0.2178E-2
  2.590     0.2199E-2
  2.591     0.2219E-2
  2.592     0.2240E-2
  2.593     0.2261E-2
  2.594     0.2282E-2
  2.595     0.2304E-2
  2.596     0.2326E-2
  2.598     0.2348E-2
  2.599     0.2371E-2
  2.600     0.2394E-2
  2.601     0.2417E-2
  2.602     0.2441E-2
  2.603     0.2465E-2
  2.604     0.2489E-2
  2.605     0.2514E-2
  2.606     0.2539E-2
  2.608     0.2565E-2
  2.609     0.2591E-2
    2.6098     0.0026
    2.6109     0.0026
    2.6120     0.0027
    2.6131     0.0027
    2.6143     0.0027
    2.6154     0.0028
    2.6165     0.0028
    2.6176     0.0028
    2.6187     0.0028
    2.6198     0.0029
    2.6210     0.0029
    2.6221     0.0029
    2.6232     0.0030
    2.6243     0.0030
    2.6254     0.0030
    2.6265     0.0031
    2.6277     0.0031
    2.6288     0.0031
    2.6299     0.0032
    2.6310     0.0032
    2.6321     0.0032
    2.6333     0.0033
    2.6344     0.0033
    2.6355     0.0034
    2.6366     0.0034
    2.6377     0.0034
    2.6388     0.0035
    2.6400     0.0035
    2.6411     0.0036
    2.6422     0.0036
    2.6433     0.0036
    2.6444     0.0037
    2.6455     0.0037
    2.6467     0.0038
    2.6478     0.0038
    2.6489     0.0039
    2.6500     0.0039
    2.6511     0.0040
    2.6522     0.0040
    2.6534     0.0041
    2.6545     0.0041
    2.6556     0.0042
    2.6567     0.0042
    2.6578     0.0043
    2.6589     0.0043
    2.6601     0.0044
    2.6612     0.0044
    2.6623     0.0045
    2.6634     0.0046
    2.6645     0.0046
    2.6657     0.0047
    2.6668     0.0048
    2.6679     0.0048
    2.6690     0.0049
    2.6701     0.0050
    2.6712     0.0050
    2.6724     0.0051
    2.6735     0.0052
    2.6746     0.0052
    2.6757     0.0053
    2.6768     0.0054
    2.6779     0.0055
    2.6791     0.0056
    2.6802     0.0056
    2.6813     0.0057
    2.6824     0.0058
    2.6835     0.0059
    2.6846     0.0060
    2.6858     0.0061
    2.6869     0.0062
    2.6880     0.0063
    2.6891     0.0064
    2.6902     0.0065
    2.6913     0.0066
    2.6925     0.0067
    2.6936     0.0068
    2.6947     0.0069
    2.6958     0.0070
    2.6969     0.0071
    2.6981     0.0073
    2.6992     0.0074
    2.7003     0.0075
    2.7014     0.0076
    2.7025     0.0078
    2.7036     0.0079
    2.7048     0.0080
    2.7059     0.0082
    2.7070     0.0083
    2.7081     0.0085
    2.7092     0.0086
    2.7103     0.0088
    2.7115     0.0090
    2.7126     0.0091
    2.7137     0.0093
    2.7148     0.0095
    2.7159     0.0097
    2.7170     0.0099
   2.71816    0.01008
   2.71928    0.01028
   2.72040    0.01049
   2.72151    0.01070
   2.72263    0.01092
   2.72375    0.01115
   2.72486    0.01139
   2.72598    0.01163
   2.72710    0.01189
   2.72822    0.01215
   2.72933    0.01241
   2.73045    0.01269
   2.73157    0.01298
   2.73268    0.01328
   2.73380    0.01358
   2.73492    0.01390
   2.73604    0.01423
   2.73715    0.01457
   2.73827    0.01492
   2.73939    0.01529
   2.74051    0.01567
   2.74162    0.01606
   2.74274    0.01647
   2.74386    0.01690
   2.74497    0.01734
   2.74609    0.01780
   2.74721    0.01827
   2.74833    0.01877
   2.74944    0.01929
   2.75056    0.01983
   2.75168    0.02039
   2.75279    0.02097
   2.75391    0.02158
   2.75503    0.02222
   2.75615    0.02289
   2.75726    0.02358
   2.75838    0.02431
   2.75950    0.02507
   2.76062    0.02587
   2.76173    0.02671
   2.76285    0.02759
   2.76397    0.02851
   2.76508    0.02948
   2.76620    0.03049
   2.76732    0.03156
   2.76844    0.03269
   2.76955    0.03388
   2.77067    0.03513
   2.77179    0.03646
   2.77290    0.03786
   2.77402    0.03934
   2.77514    0.04091
   2.77626    0.04257
   2.77737    0.04433
   2.77849    0.04621
   2.77961    0.04820
   2.78073    0.05032
   2.78184    0.05259
   2.78296    0.05501
   2.78408    0.05759
   2.78519    0.06036
   2.78631    0.06333
   2.78743    0.06651
   2.78855    0.06994
   2.78966    0.07364
   2.79078    0.07762
   2.79190    0.08193
   2.79301    0.08660
   2.79413    0.09166
   2.79525    0.09716
  2.796366   0.103156
  2.797483   0.109699
  2.798601   0.116858
  2.799718   0.124707
  2.800835   0.133331
  2.801952   0.142832
  2.803070   0.153320
  2.804187   0.164930
  2.805304   0.177809
  2.806421   0.192135
  2.807539   0.208108
  2.808656   0.225953
  2.809773   0.245940
  2.810890   0.268360
  2.812007   0.293558
  2.813124   0.321895
  2.814242   0.353784
  2.815359   0.389629
  2.816476   0.429853
  2.817594   0.474801
  2.818711   0.524691
  2.819828   0.579535
  2.820945   0.638923
  2.822062   0.701922
  2.823179   0.766792
  2.824297   0.830857
  2.825414   0.890511
  2.826531   0.941363
  2.827648   0.978884
  2.828766   0.999193
  2.829883   1.000000
  2.831000   0.981215
  2.832117   0.944969
  2.833235   0.895028
  2.834352   0.835934
  2.835469   0.772077
  2.836586   0.707169
  2.837703   0.643964
  2.838821   0.584239
  2.839938   0.529028
  2.841055   0.478735
  2.842172   0.433412
  2.843289   0.392829
  2.844407   0.356649
  2.845524   0.324472
  2.846641   0.295869
  2.847758   0.270447
  2.848876   0.247823
  2.849993   0.227666
  2.851110   0.209666
  2.852227   0.193563
  2.853344   0.179126
  2.854462   0.166146
  2.855579   0.154454
  2.856696   0.143892
  2.857813   0.134328
  2.858931   0.125651
  2.860048   0.117756
  2.861165   0.110559
  2.862282   0.103982
   2.86340    0.09796
   2.86452    0.09243
   2.86563    0.08735
   2.86675    0.08267
   2.86787    0.07835
   2.86899    0.07436
   2.87010    0.07066
   2.87122    0.06723
   2.87234    0.06405
   2.87345    0.06108
   2.87457    0.05832
   2.87569    0.05574
   2.87681    0.05333
   2.87792    0.05108
   2.87904    0.04897
   2.88016    0.04699
   2.88127    0.04513
   2.88239    0.04339
   2.88351    0.04175
   2.88463    0.04020
   2.88574    0.03875
   2.88686    0.03738
   2.88798    0.03608
   2.88910    0.03486
   2.89021    0.03371
   2.89133    0.03262
   2.89245    0.03159
   2.89356    0.03061
   2.89468    0.02969
   2.89580    0.02882
   2.89692    0.02799
   2.89803    0.02721
   2.89915    0.02647
   2.90027    0.02577
   2.90138    0.02511
   2.90250    0.02449
   2.90362    0.02391
   2.90474    0.02335
   2.90585    0.02284
   2.90697    0.02235
   2.90809    0.02190
   2.90921    0.02148
   2.91032    0.02109
   2.91144    0.02073
   2.91256    0.02040
   2.91367    0.02011
   2.91479    0.01984
   2.91591    0.01962
   2.91703    0.01942
   2.91814    0.01926
   2.91926    0.01914
   2.92038    0.01906
   2.92149    0.01903
   2.92261    0.01904
   2.92373    0.01911
   2.92485    0.01923
   2.92596    0.01941
   2.92708    0.01966
   2.92820    0.01999
   2.92932    0.02040
   2.93043    0.02091
   2.93155    0.02153
   2.93267    0.02226
   2.93378    0.02312
   2.93490    0.02412
   2.93602    0.02526
   2.93714    0.02654
   2.93825    0.02795
   2.93937    0.02946
   2.94049    0.03102
   2.94160    0.03256
   2.94272    0.03398
   2.94384    0.03515
   2.94496    0.03596
   2.94607    0.03630
   2.94719    0.03610
   2.94831    0.03539
   2.94943    0.03421
   2.95054    0.03267
   2.95166    0.03089
   2.95278    0.02900
   2.95389    0.02709
   2.95501    0.02524
   2.95613    0.02348
   2.95725    0.02186
   2.95836    0.02037
   2.95948    0.01902
   2.96060    0.01780
   2.96171    0.01671
   2.96283    0.01572
   2.96395    0.01484
   2.96507    0.01404
   2.96618    0.01332
   2.96730    0.01267
   2.96842    0.01208
   2.96954    0.01155
   2.97065    0.01106
   2.97177    0.01061
   2.97289    0.01020
    2.9740     0.0098
    2.9751     0.0095
    2.9762     0.0092
    2.9774     0.0089
    2.9785     0.0086
    2.9796     0.0083
    2.9807     0.0081
    2.9818     0.0078
    2.9829     0.0076
    2.9841     0.0074
    2.9852     0.0072
    2.9863     0.0071
    2.9874     0.0069
    2.9885     0.0067
    2.9896     0.0066
    2.9908     0.0064
    2.9919     0.0063
    2.9930     0.0061
    2.9941     0.0060
    2.9952     0.0059
    2.9963     0.0058
    2.9975     0.0057
    2.9986     0.0056
    2.9997     0.0054
    3.0008     0.0053
    3.0019     0.0052
    3.0031     0.0052
    3.0042     0.0051
    3.0053     0.0050
    3.0064     0.0049
    3.0075     0.0048
    3.0086     0.0047
    3.0098     0.0047
    3.0109     0.0046
    3.0120     0.0045
    3.0131     0.0044
    3.0142     0.0044
    3.0153     0.0043
    3.0165     0.0042
    3.0176     0.0042
    3.0187     0.0041
    3.0198     0.0041
    3.0209     0.0040
    3.0220     0.0039
    3.0232     0.0039
    3.0243     0.0038
    3.0254     0.0038
    3.0265     0.0037
    3.0276     0.0037
    3.0287     0.0036
    3.0299     0.0036
    3.0310     0.0035
    3.0321     0.0035
    3.0332     0.0034
    3.0343     0.0034
    3.0355     0.0034
    3.0366     0.0033
    3.0377     0.0033
    3.0388     0.0032
    3.0399     0.0032
    3.0410     0.0032
    3.0422     0.0031
    3.0433     0.0031
    3.0444     0.0030
  3.046     0.3013E-2
  3.047     0.2978E-2
  3.048     0.2944E-2
  3.049     0.2910E-2
  3.050     0.2878E-2
  3.051     0.2845E-2
  3.052     0.2814E-2
  3.053     0.2782E-2
  3.054     0.2752E-2
  3.056     0.2722E-2
  3.057     0.2692E-2
  3.058     0.2663E-2
  3.059     0.2635E-2
  3.060     0.2607E-2
  3.061     0.2579E-2
  3.062     0.2552E-2
  3.063     0.2525E-2
  3.064     0.2499E-2
  3.066     0.2474E-2
  3.067     0.2448E-2
  3.068     0.2423E-2
  3.069     0.2399E-2
  3.070     0.2375E-2
  3.071     0.2351E-2
  3.072     0.2328E-2
  3.073     0.2305E-2
  3.075     0.2282E-2
  3.076     0.2260E-2
  3.077     0.2238E-2
  3.078     0.2216E-2
  3.079     0.2195E-2
  3.080     0.2174E-2
  3.081     0.2153E-2
  3.082     0.2133E-2
  3.083     0.2113E-2
  3.085     0.2093E-2
  3.086     0.2074E-2
  3.087     0.2055E-2
  3.088     0.2036E-2
  3.089     0.2017E-2
  3.090     0.1999E-2
  3.091     0.1981E-2
  3.092     0.1963E-2
  3.094     0.1945E-2
  3.095     0.1928E-2
  3.096     0.1911E-2
  3.097     0.1894E-2
  3.098     0.1877E-2
  3.099     0.1861E-2
  3.100     0.1845E-2
  3.101     0.1829E-2
  3.102     0.1813E-2
  3.104     0.1797E-2
  3.105     0.1782E-2
  3.106     0.1767E-2
  3.107     0.1752E-2
  3.108     0.1737E-2
  3.109     0.1723E-2
  3.110     0.1708E-2
  3.111     0.1694E-2
  3.113     0.1680E-2
  3.114     0.1666E-2
  3.115     0.1653E-2
  3.116     0.1639E-2
  3.117     0.1626E-2
  3.118     0.1613E-2
  3.119     0.1600E-2
  3.120     0.1587E-2
  3.121     0.1574E-2
  3.123     0.1562E-2
  3.124     0.1549E-2
  3.125     0.1537E-2
  3.126     0.1525E-2
  3.127     0.1513E-2
  3.128     0.1501E-2
  3.129     0.1490E-2
  3.130     0.1478E-2
  3.132     0.1467E-2
  3.133     0.1456E-2
  3.134     0.1445E-2
  3.135     0.1434E-2
  3.136     0.1423E-2
  3.137     0.1412E-2
  3.138     0.1401E-2
  3.139     0.1391E-2
  3.140     0.1381E-2
  3.142     0.1370E-2
  3.143     0.1360E-2
  3.144     0.1350E-2
  3.145     0.1340E-2
  3.146     0.1331E-2
  3.147     0.1321E-2
  3.148     0.1311E-2
  3.149     0.1302E-2
  3.151     0.1293E-2
  3.152     0.1283E-2
  3.153     0.1274E-2
  3.154     0.1265E-2
  3.155     0.1256E-2
  3.156     0.1247E-2
  3.157     0.1238E-2
  3.158     0.1230E-2
  3.159     0.1221E-2
  3.161     0.1213E-2
  3.162     0.1204E-2
  3.163     0.1196E-2
  3.164     0.1188E-2
  3.165     0.1180E-2
  3.166     0.1172E-2
  3.167     0.1164E-2
  3.168     0.1156E-2
  3.170     0.1148E-2
  3.171     0.1140E-2
  3.172     0.1133E-2
  3.173     0.1125E-2
  3.174     0.1117E-2
  3.175     0.1110E-2
  3.176     0.1103E-2
  3.177     0.1095E-2
  3.178     0.1088E-2
  3.180     0.1081E-2
  3.181     0.1074E-2
  3.182     0.1067E-2
  3.183     0.1060E-2
  3.184     0.1053E-2
  3.185     0.1047E-2
  3.186     0.1040E-2
  3.187     0.1033E-2
  3.189     0.1027E-2
  3.190     0.1020E-2
  3.191     0.1014E-2
  3.192     0.1007E-2
  3.193     0.1001E-2
  3.194     0.9946E-3
  3.195     0.9884E-3
  3.196     0.9822E-3
  3.197     0.9761E-3
  3.199     0.9701E-3
  3.200     0.9641E-3
  3.201     0.9581E-3
  3.202     0.9523E-3
  3.203     0.9464E-3
  3.204     0.9407E-3
  3.205     0.9350E-3
  3.206     0.9293E-3
  3.208     0.9237E-3
  3.209     0.9181E-3
  3.210     0.9126E-3
  3.211     0.9072E-3
  3.212     0.9018E-3
  3.213     0.8964E-3
  3.214     0.8911E-3
  3.215     0.8858E-3
  3.216     0.8806E-3
  3.218     0.8754E-3
  3.219     0.8703E-3
  3.220     0.8652E-3
  3.221     0.8602E-3
  3.222     0.8552E-3
  3.223     0.8502E-3
  3.224     0.8453E-3
  3.225     0.8405E-3
  3.226     0.8356E-3
  3.228     0.8309E-3
  3.229     0.8261E-3
  3.230     0.8214E-3
  3.231     0.8168E-3
  3.232     0.8122E-3
  3.233     0.8076E-3
  3.234     0.8030E-3
  3.235     0.7985E-3
  3.237     0.7941E-3
  3.238     0.7897E-3
  3.239     0.7853E-3
  3.240     0.7809E-3
  3.241     0.7766E-3
  3.242     0.7723E-3
  3.243     0.7681E-3
  3.244     0.7639E-3
  3.245     0.7597E-3
  3.247     0.7556E-3
  3.248     0.7515E-3
  3.249     0.7474E-3
  3.250     0.7433E-3
  3.251     0.7393E-3
  3.252     0.7354E-3
  3.253     0.7314E-3
  3.254     0.7275E-3
  3.256     0.7236E-3
  3.257     0.7198E-3
  3.258     0.7160E-3
  3.259     0.7122E-3
  3.260     0.7084E-3
  3.261     0.7047E-3
  3.262     0.7010E-3
  3.263     0.6973E-3
  3.264     0.6937E-3
  3.266     0.6901E-3
  3.267     0.6865E-3
  3.268     0.6830E-3
  3.269     0.6794E-3
  3.270     0.6759E-3
  3.271     0.6725E-3
  3.272     0.6690E-3
  3.273     0.6656E-3
  3.275     0.6622E-3
  3.276     0.6588E-3
  3.277     0.6555E-3
  3.278     0.6522E-3
  3.279     0.6489E-3
  3.280     0.6456E-3
  3.281     0.6424E-3
  3.282     0.6392E-3
  3.283     0.6360E-3
  3.285     0.6328E-3
  3.286     0.6297E-3
  3.287     0.6266E-3
  3.288     0.6235E-3
  3.289     0.6204E-3
  3.290     0.6173E-3
  3.291     0.6143E-3
  3.292     0.6113E-3
  3.294     0.6083E-3
  3.295     0.6054E-3
  3.296     0.6024E-3
  3.297     0.5995E-3
  3.298     0.5966E-3
  3.299     0.5937E-3
  3.300     0.5909E-3
  3.301     0.5880E-3
  3.302     0.5852E-3
  3.304     0.5824E-3
  3.305     0.5797E-3
  3.306     0.5769E-3
  3.307     0.5742E-3
  3.308     0.5715E-3
  3.309     0.5688E-3
  3.310     0.5661E-3
  3.311     0.5634E-3
  3.313     0.5608E-3
  3.314     0.5582E-3
  3.315     0.5556E-3
  3.316     0.5530E-3
  3.317     0.5504E-3
  3.318     0.5479E-3
  3.319     0.5453E-3
  3.320     0.5428E-3
  3.321     0.5403E-3
  3.323     0.5379E-3
  3.324     0.5354E-3
  3.325     0.5330E-3
  3.326     0.5305E-3
  3.327     0.5281E-3
  3.328     0.5257E-3
  3.329     0.5233E-3
  3.330     0.5210E-3
  3.332     0.5186E-3
  3.333     0.5163E-3
  3.334     0.5140E-3
  3.335     0.5117E-3
  3.336     0.5094E-3
  3.337     0.5071E-3
  3.338     0.5049E-3
  3.339     0.5027E-3
  3.340     0.5004E-3
  3.342     0.4982E-3
  3.343     0.4960E-3
  3.344     0.4938E-3
  3.345     0.4917E-3
  3.346     0.4895E-3
  3.347     0.4874E-3
  3.348     0.4853E-3
  3.349     0.4832E-3
  3.351     0.4811E-3
  3.352     0.4790E-3
  3.353     0.4769E-3
  3.354     0.4749E-3
  3.355     0.4728E-3
  3.356     0.4708E-3
  3.357     0.4688E-3
  3.358     0.4668E-3
  3.359     0.4648E-3
  3.361     0.4628E-3
  3.362     0.4609E-3
  3.363     0.4589E-3
  3.364     0.4570E-3
  3.365     0.4550E-3
  3.366     0.4531E-3
  3.367     0.4512E-3
  3.368     0.4493E-3
  3.369     0.4475E-3
  3.371     0.4456E-3
  3.372     0.4437E-3
  3.373     0.4419E-3
  3.374     0.4401E-3
  3.375     0.4382E-3
  3.376     0.4364E-3
  3.377     0.4346E-3
  3.378     0.4329E-3
  3.380     0.4311E-3
  3.381     0.4293E-3
  3.382     0.4276E-3
  3.383     0.4258E-3
  3.384     0.4241E-3
  3.385     0.4224E-3
  3.386     0.4207E-3
  3.387     0.4190E-3
  3.388     0.4173E-3
  3.390     0.4156E-3
  3.391     0.4139E-3
  3.392     0.4123E-3
  3.393     0.4106E-3
  3.394     0.4090E-3
  3.395     0.4073E-3
  3.396     0.4057E-3
  3.397     0.4041E-3
  3.399     0.4025E-3
  3.400     0.4009E-3
  3.401     0.3993E-3
  3.402     0.3978E-3
  3.403     0.3962E-3
  3.404     0.3946E-3
  3.405     0.3931E-3
  3.406     0.3916E-3
  3.407     0.3900E-3
  3.409     0.3885E-3
  3.410     0.3870E-3
  3.411     0.3855E-3
  3.412     0.3840E-3
  3.413     0.3825E-3
  3.414     0.3810E-3
  3.415     0.3796E-3
  3.416     0.3781E-3
  3.418     0.3767E-3
  3.419     0.3752E-3
  3.420     0.3738E-3
  3.421     0.3724E-3
  3.422     0.3710E-3
  3.423     0.3696E-3
  3.424     0.3682E-3
  3.425     0.3668E-3
  3.426     0.3654E-3
  3.428     0.3640E-3
  3.429     0.3626E-3
  3.430     0.3613E-3
  3.431     0.3599E-3
  3.432     0.3586E-3
  3.433     0.3572E-3
  3.434     0.3559E-3
  3.435     0.3546E-3
  3.437     0.3533E-3
  3.438     0.3520E-3
  3.439     0.3507E-3
  3.440     0.3494E-3
  3.441     0.3481E-3
  3.442     0.3468E-3
  3.443     0.3455E-3
  3.444     0.3443E-3
  3.445     0.3430E-3
# 
# 06/20/2019 at 00:18 YPP @ br018.pvt.bridges.psc.edu [start]
# 06/20/2019 at 00:19                                 [end]
#  
# Timing   [Min/Max/Average]: 02s/02s/02s
#
# .-Input file : amp.in
# | excitons                     # [R] Excitons
# | amplitude                    # [R] Amplitude
# | BoseTemp=  0.02585     eV    # Bosonic Temperature
# | States= "1 - 20"             # Index of the BS state(s)
# | #DipWeight                   #  Weight the contribution to the exciton WFs with the dipoles
# | Degen_Step=0.1000E-4   eV    # Maximum energy separation of two degenerate states
