#                                                           
#   __   __     _        __  __       ____      U  ___  u   
#   \ \ / / U  /"\  U u |" \/ "| u U | __") u    \/"_ \/    
#    \ V /   \/ _ \/   \| |\/| |/   \|  _ \/     | | | |    
#   U_|"|_u  / ___ \    | |  | |     | |_) | .-,_| |_| |    
#     |_|   /_/   \_\   |_|  |_|     |____/   \_)-\___/     
# .-,//|(_   \\    >>  <<,-,,-.     _|| \\_        \\       
#  \_) (__) (__)  (__)  (./  \.)   (__) (__)      (__)      
#                                                           
#                                                           
#              GPL Version 4.1.4 Revision 76                
#                        MPI Build                          
#                http://www.yambo-code.org                  
#
# BSK|Identifier              :9599
#    |Dimension               :5098
#    |Bands                   :524 - 624
#    |Exchange           [res]: yes
#    |Correlation        [res]: no
#    |Kernel`s coupling       : no
#    |Exchange           [cpl]: no
#    |Correlation        [cpl]: no
#    |W interaction is bare   : no
#    |ALDA kernel in R-space  : no
#    |RL vectors    [exchange]:55207
#    |E/h energy range    [ev]:-1.000000 - -1.000000
#    |Coupling range     [o/o]: 100.0000 -  100.0000
#
# Electron-Hole pairs that contributes to Excitonic State 6 more than 5%
#
#  E    [eV]  Amplitude
#  
  2.349     0.3998E-3
  2.350     0.4014E-3
  2.351     0.4031E-3
  2.352     0.4047E-3
  2.353     0.4063E-3
  2.354     0.4080E-3
  2.355     0.4096E-3
  2.356     0.4113E-3
  2.357     0.4129E-3
  2.358     0.4146E-3
  2.359     0.4163E-3
  2.360     0.4180E-3
  2.361     0.4197E-3
  2.362     0.4215E-3
  2.363     0.4232E-3
  2.364     0.4249E-3
  2.365     0.4267E-3
  2.366     0.4285E-3
  2.367     0.4302E-3
  2.368     0.4320E-3
  2.369     0.4338E-3
  2.370     0.4357E-3
  2.371     0.4375E-3
  2.372     0.4393E-3
  2.373     0.4412E-3
  2.374     0.4430E-3
  2.375     0.4449E-3
  2.376     0.4468E-3
  2.377     0.4487E-3
  2.378     0.4506E-3
  2.379     0.4525E-3
  2.380     0.4544E-3
  2.381     0.4564E-3
  2.382     0.4583E-3
  2.383     0.4603E-3
  2.384     0.4623E-3
  2.385     0.4643E-3
  2.386     0.4663E-3
  2.387     0.4683E-3
  2.388     0.4703E-3
  2.389     0.4724E-3
  2.390     0.4744E-3
  2.391     0.4765E-3
  2.392     0.4786E-3
  2.393     0.4807E-3
  2.394     0.4828E-3
  2.395     0.4849E-3
  2.396     0.4871E-3
  2.397     0.4892E-3
  2.398     0.4914E-3
  2.399     0.4936E-3
  2.400     0.4958E-3
  2.401     0.4980E-3
  2.402     0.5002E-3
  2.403     0.5025E-3
  2.404     0.5047E-3
  2.405     0.5070E-3
  2.406     0.5093E-3
  2.407     0.5116E-3
  2.408     0.5139E-3
  2.409     0.5163E-3
  2.410     0.5186E-3
  2.411     0.5210E-3
  2.412     0.5234E-3
  2.413     0.5258E-3
  2.414     0.5282E-3
  2.415     0.5306E-3
  2.416     0.5331E-3
  2.417     0.5355E-3
  2.418     0.5380E-3
  2.419     0.5405E-3
  2.420     0.5431E-3
  2.421     0.5456E-3
  2.422     0.5482E-3
  2.423     0.5507E-3
  2.424     0.5533E-3
  2.425     0.5559E-3
  2.426     0.5586E-3
  2.427     0.5612E-3
  2.428     0.5639E-3
  2.429     0.5666E-3
  2.430     0.5693E-3
  2.431     0.5720E-3
  2.432     0.5747E-3
  2.433     0.5775E-3
  2.434     0.5803E-3
  2.435     0.5831E-3
  2.436     0.5859E-3
  2.437     0.5888E-3
  2.438     0.5916E-3
  2.439     0.5945E-3
  2.440     0.5974E-3
  2.441     0.6004E-3
  2.442     0.6033E-3
  2.443     0.6063E-3
  2.444     0.6093E-3
  2.445     0.6123E-3
  2.446     0.6154E-3
  2.447     0.6184E-3
  2.448     0.6215E-3
  2.449     0.6246E-3
  2.450     0.6277E-3
  2.451     0.6309E-3
  2.452     0.6341E-3
  2.453     0.6373E-3
  2.454     0.6405E-3
  2.455     0.6438E-3
  2.456     0.6470E-3
  2.457     0.6503E-3
  2.458     0.6537E-3
  2.459     0.6570E-3
  2.460     0.6604E-3
  2.461     0.6638E-3
  2.462     0.6672E-3
  2.463     0.6707E-3
  2.464     0.6742E-3
  2.465     0.6777E-3
  2.466     0.6812E-3
  2.467     0.6848E-3
  2.468     0.6884E-3
  2.469     0.6920E-3
  2.470     0.6957E-3
  2.471     0.6994E-3
  2.472     0.7031E-3
  2.473     0.7068E-3
  2.474     0.7106E-3
  2.475     0.7144E-3
  2.476     0.7182E-3
  2.477     0.7221E-3
  2.478     0.7260E-3
  2.479     0.7299E-3
  2.480     0.7339E-3
  2.481     0.7379E-3
  2.482     0.7419E-3
  2.483     0.7460E-3
  2.484     0.7500E-3
  2.485     0.7542E-3
  2.486     0.7583E-3
  2.487     0.7625E-3
  2.488     0.7667E-3
  2.489     0.7710E-3
  2.490     0.7753E-3
  2.491     0.7796E-3
  2.492     0.7840E-3
  2.493     0.7884E-3
  2.494     0.7929E-3
  2.495     0.7973E-3
  2.496     0.8019E-3
  2.497     0.8064E-3
  2.498     0.8110E-3
  2.499     0.8157E-3
  2.500     0.8203E-3
  2.501     0.8251E-3
  2.502     0.8298E-3
  2.503     0.8346E-3
  2.504     0.8395E-3
  2.505     0.8443E-3
  2.506     0.8493E-3
  2.507     0.8542E-3
  2.508     0.8592E-3
  2.509     0.8643E-3
  2.510     0.8694E-3
  2.511     0.8746E-3
  2.512     0.8797E-3
  2.513     0.8850E-3
  2.514     0.8903E-3
  2.515     0.8956E-3
  2.516     0.9010E-3
  2.517     0.9064E-3
  2.518     0.9119E-3
  2.519     0.9174E-3
  2.520     0.9230E-3
  2.521     0.9286E-3
  2.522     0.9343E-3
  2.523     0.9401E-3
  2.524     0.9458E-3
  2.525     0.9517E-3
  2.526     0.9576E-3
  2.527     0.9635E-3
  2.528     0.9695E-3
  2.529     0.9756E-3
  2.530     0.9817E-3
  2.531     0.9879E-3
  2.532     0.9941E-3
  2.533     0.1000E-2
  2.534     0.1007E-2
  2.535     0.1013E-2
  2.536     0.1020E-2
  2.537     0.1026E-2
  2.538     0.1033E-2
  2.539     0.1040E-2
  2.540     0.1046E-2
  2.541     0.1053E-2
  2.542     0.1060E-2
  2.543     0.1067E-2
  2.544     0.1074E-2
  2.545     0.1081E-2
  2.546     0.1088E-2
  2.547     0.1095E-2
  2.548     0.1103E-2
  2.549     0.1110E-2
  2.550     0.1117E-2
  2.551     0.1125E-2
  2.552     0.1132E-2
  2.553     0.1140E-2
  2.554     0.1148E-2
  2.555     0.1156E-2
  2.556     0.1163E-2
  2.557     0.1171E-2
  2.558     0.1180E-2
  2.559     0.1188E-2
  2.560     0.1196E-2
  2.561     0.1204E-2
  2.562     0.1213E-2
  2.563     0.1221E-2
  2.564     0.1230E-2
  2.565     0.1238E-2
  2.566     0.1247E-2
  2.567     0.1256E-2
  2.568     0.1265E-2
  2.569     0.1274E-2
  2.570     0.1283E-2
  2.571     0.1292E-2
  2.572     0.1302E-2
  2.573     0.1311E-2
  2.574     0.1321E-2
  2.575     0.1330E-2
  2.576     0.1340E-2
  2.577     0.1350E-2
  2.578     0.1360E-2
  2.579     0.1370E-2
  2.580     0.1380E-2
  2.581     0.1390E-2
  2.582     0.1401E-2
  2.583     0.1411E-2
  2.584     0.1422E-2
  2.585     0.1433E-2
  2.586     0.1444E-2
  2.587     0.1455E-2
  2.588     0.1466E-2
  2.589     0.1477E-2
  2.590     0.1489E-2
  2.591     0.1500E-2
  2.592     0.1512E-2
  2.593     0.1524E-2
  2.594     0.1536E-2
  2.595     0.1548E-2
  2.596     0.1560E-2
  2.597     0.1572E-2
  2.598     0.1585E-2
  2.599     0.1597E-2
  2.600     0.1610E-2
  2.601     0.1623E-2
  2.602     0.1636E-2
  2.603     0.1650E-2
  2.604     0.1663E-2
  2.605     0.1677E-2
  2.606     0.1691E-2
  2.607     0.1705E-2
  2.608     0.1719E-2
  2.609     0.1733E-2
  2.610     0.1748E-2
  2.611     0.1762E-2
  2.612     0.1777E-2
  2.613     0.1792E-2
  2.614     0.1808E-2
  2.615     0.1823E-2
  2.616     0.1839E-2
  2.617     0.1854E-2
  2.618     0.1871E-2
  2.619     0.1887E-2
  2.620     0.1903E-2
  2.621     0.1920E-2
  2.622     0.1937E-2
  2.623     0.1954E-2
  2.624     0.1971E-2
  2.625     0.1989E-2
  2.626     0.2007E-2
  2.627     0.2025E-2
  2.628     0.2043E-2
  2.629     0.2062E-2
  2.630     0.2081E-2
  2.631     0.2100E-2
  2.632     0.2119E-2
  2.633     0.2139E-2
  2.634     0.2159E-2
  2.635     0.2179E-2
  2.636     0.2199E-2
  2.637     0.2220E-2
  2.638     0.2241E-2
  2.639     0.2262E-2
  2.640     0.2284E-2
  2.641     0.2306E-2
  2.642     0.2328E-2
  2.643     0.2351E-2
  2.644     0.2374E-2
  2.645     0.2397E-2
  2.646     0.2421E-2
  2.647     0.2445E-2
  2.648     0.2469E-2
  2.649     0.2494E-2
  2.650     0.2519E-2
  2.651     0.2544E-2
  2.652     0.2570E-2
  2.653     0.2596E-2
  2.654     0.2623E-2
  2.655     0.2650E-2
    2.6561     0.0027
    2.6571     0.0027
    2.6581     0.0027
    2.6591     0.0028
    2.6601     0.0028
    2.6611     0.0028
    2.6621     0.0029
    2.6631     0.0029
    2.6641     0.0029
    2.6651     0.0029
    2.6661     0.0030
    2.6671     0.0030
    2.6681     0.0030
    2.6691     0.0031
    2.6701     0.0031
    2.6711     0.0031
    2.6721     0.0032
    2.6731     0.0032
    2.6741     0.0033
    2.6751     0.0033
    2.6761     0.0033
    2.6771     0.0034
    2.6781     0.0034
    2.6791     0.0034
    2.6801     0.0035
    2.6811     0.0035
    2.6821     0.0036
    2.6831     0.0036
    2.6841     0.0037
    2.6851     0.0037
    2.6861     0.0037
    2.6871     0.0038
    2.6881     0.0038
    2.6891     0.0039
    2.6901     0.0039
    2.6911     0.0040
    2.6921     0.0040
    2.6931     0.0041
    2.6941     0.0041
    2.6951     0.0042
    2.6961     0.0043
    2.6971     0.0043
    2.6981     0.0044
    2.6991     0.0044
    2.7001     0.0045
    2.7011     0.0045
    2.7021     0.0046
    2.7031     0.0047
    2.7041     0.0047
    2.7051     0.0048
    2.7061     0.0049
    2.7071     0.0049
    2.7081     0.0050
    2.7091     0.0051
    2.7101     0.0051
    2.7111     0.0052
    2.7121     0.0053
    2.7131     0.0054
    2.7141     0.0055
    2.7151     0.0055
    2.7161     0.0056
    2.7171     0.0057
    2.7181     0.0058
    2.7191     0.0059
    2.7201     0.0060
    2.7211     0.0061
    2.7221     0.0062
    2.7231     0.0063
    2.7241     0.0064
    2.7251     0.0065
    2.7261     0.0066
    2.7271     0.0067
    2.7281     0.0068
    2.7291     0.0069
    2.7301     0.0070
    2.7311     0.0071
    2.7321     0.0073
    2.7331     0.0074
    2.7341     0.0075
    2.7351     0.0076
    2.7361     0.0078
    2.7371     0.0079
    2.7381     0.0081
    2.7391     0.0082
    2.7401     0.0083
    2.7411     0.0085
    2.7421     0.0087
    2.7431     0.0088
    2.7441     0.0090
    2.7451     0.0092
    2.7461     0.0093
    2.7471     0.0095
    2.7481     0.0097
    2.7491     0.0099
   2.75015    0.01010
   2.75115    0.01031
   2.75215    0.01052
   2.75315    0.01073
   2.75415    0.01096
   2.75515    0.01119
   2.75615    0.01143
   2.75715    0.01168
   2.75815    0.01193
   2.75915    0.01220
   2.76015    0.01247
   2.76115    0.01275
   2.76215    0.01304
   2.76315    0.01334
   2.76415    0.01365
   2.76515    0.01397
   2.76615    0.01431
   2.76715    0.01465
   2.76815    0.01501
   2.76915    0.01538
   2.77015    0.01577
   2.77115    0.01617
   2.77215    0.01659
   2.77315    0.01702
   2.77415    0.01747
   2.77515    0.01793
   2.77615    0.01842
   2.77715    0.01893
   2.77815    0.01945
   2.77915    0.02000
   2.78015    0.02057
   2.78115    0.02117
   2.78215    0.02179
   2.78315    0.02244
   2.78415    0.02312
   2.78515    0.02383
   2.78615    0.02458
   2.78715    0.02536
   2.78815    0.02617
   2.78915    0.02703
   2.79015    0.02793
   2.79115    0.02887
   2.79215    0.02986
   2.79315    0.03090
   2.79415    0.03200
   2.79515    0.03316
   2.79615    0.03438
   2.79715    0.03566
   2.79815    0.03702
   2.79915    0.03846
   2.80015    0.03998
   2.80115    0.04160
   2.80215    0.04331
   2.80315    0.04513
   2.80415    0.04706
   2.80515    0.04912
   2.80615    0.05131
   2.80715    0.05365
   2.80815    0.05615
   2.80915    0.05882
   2.81015    0.06169
   2.81115    0.06477
   2.81215    0.06807
   2.81315    0.07163
   2.81415    0.07547
   2.81515    0.07962
   2.81615    0.08410
   2.81715    0.08897
   2.81815    0.09425
  2.819149   0.100000
  2.820149   0.106270
  2.821149   0.113123
  2.822149   0.120627
  2.823148   0.128865
  2.824149   0.137932
  2.825149   0.147929
  2.826149   0.158984
  2.827149   0.171233
  2.828149   0.184842
  2.829149   0.200001
  2.830149   0.216919
  2.831149   0.235851
  2.832149   0.257069
  2.833148   0.280897
  2.834149   0.307693
  2.835149   0.337836
  2.836149   0.371750
  2.837149   0.409836
  2.838149   0.452493
  2.839149   0.500001
  2.840149   0.552483
  2.841149   0.609760
  2.842149   0.671139
  2.843149   0.735300
  2.844149   0.800001
  2.845149   0.862065
  2.846149   0.917434
  2.847149   0.961537
  2.848149   0.990101
  2.849149   1.000000
  2.850148   0.990101
  2.851149   0.961537
  2.852149   0.917434
  2.853149   0.862065
  2.854149   0.800001
  2.855149   0.735287
  2.856149   0.671139
  2.857149   0.609760
  2.858149   0.552483
  2.859149   0.500001
  2.860149   0.452484
  2.861149   0.409836
  2.862149   0.371750
  2.863149   0.337836
  2.864149   0.307693
  2.865149   0.280897
  2.866149   0.257069
  2.867149   0.235851
  2.868149   0.216919
  2.869148   0.200001
  2.870149   0.184842
  2.871149   0.171233
  2.872149   0.158981
  2.873149   0.147929
  2.874149   0.137932
  2.875149   0.128865
  2.876149   0.120627
  2.877149   0.113121
  2.878149   0.106270
  2.879148   0.100000
   2.88015    0.09425
   2.88115    0.08897
   2.88215    0.08410
   2.88315    0.07962
   2.88415    0.07547
   2.88515    0.07163
   2.88615    0.06807
   2.88715    0.06477
   2.88815    0.06169
   2.88915    0.05882
   2.89015    0.05615
   2.89115    0.05365
   2.89215    0.05131
   2.89315    0.04912
   2.89415    0.04706
   2.89515    0.04513
   2.89615    0.04331
   2.89715    0.04160
   2.89815    0.03998
   2.89915    0.03846
   2.90015    0.03702
   2.90115    0.03566
   2.90215    0.03438
   2.90315    0.03316
   2.90415    0.03200
   2.90515    0.03090
   2.90615    0.02986
   2.90715    0.02887
   2.90815    0.02793
   2.90915    0.02703
   2.91015    0.02617
   2.91115    0.02535
   2.91215    0.02458
   2.91315    0.02383
   2.91415    0.02312
   2.91515    0.02244
   2.91615    0.02179
   2.91715    0.02117
   2.91815    0.02057
   2.91915    0.02000
   2.92015    0.01945
   2.92115    0.01893
   2.92215    0.01842
   2.92315    0.01793
   2.92415    0.01747
   2.92515    0.01702
   2.92615    0.01659
   2.92715    0.01617
   2.92815    0.01577
   2.92915    0.01538
   2.93015    0.01501
   2.93115    0.01465
   2.93215    0.01431
   2.93315    0.01397
   2.93415    0.01365
   2.93515    0.01334
   2.93615    0.01304
   2.93715    0.01275
   2.93815    0.01247
   2.93915    0.01220
   2.94015    0.01193
   2.94115    0.01168
   2.94215    0.01143
   2.94315    0.01119
   2.94415    0.01096
   2.94515    0.01073
   2.94615    0.01052
   2.94715    0.01031
   2.94815    0.01010
    2.9491     0.0099
    2.9501     0.0097
    2.9511     0.0095
    2.9521     0.0093
    2.9531     0.0092
    2.9541     0.0090
    2.9551     0.0088
    2.9561     0.0087
    2.9571     0.0085
    2.9581     0.0083
    2.9591     0.0082
    2.9601     0.0081
    2.9611     0.0079
    2.9621     0.0078
    2.9631     0.0076
    2.9641     0.0075
    2.9651     0.0074
    2.9661     0.0073
    2.9671     0.0071
    2.9681     0.0070
    2.9691     0.0069
    2.9701     0.0068
    2.9711     0.0067
    2.9721     0.0066
    2.9731     0.0065
    2.9741     0.0064
    2.9751     0.0063
    2.9761     0.0062
    2.9771     0.0061
    2.9781     0.0060
    2.9791     0.0059
    2.9801     0.0058
    2.9811     0.0057
    2.9821     0.0056
    2.9831     0.0055
    2.9841     0.0055
    2.9851     0.0054
    2.9861     0.0053
    2.9871     0.0052
    2.9881     0.0051
    2.9891     0.0051
    2.9901     0.0050
    2.9911     0.0049
    2.9921     0.0049
    2.9931     0.0048
    2.9941     0.0047
    2.9951     0.0047
    2.9961     0.0046
    2.9971     0.0045
    2.9981     0.0045
    2.9991     0.0044
    3.0001     0.0044
    3.0011     0.0043
    3.0021     0.0043
    3.0031     0.0042
    3.0041     0.0041
    3.0051     0.0041
    3.0061     0.0040
    3.0071     0.0040
    3.0081     0.0039
    3.0091     0.0039
    3.0101     0.0038
    3.0111     0.0038
    3.0121     0.0037
    3.0131     0.0037
    3.0141     0.0037
    3.0151     0.0036
    3.0161     0.0036
    3.0171     0.0035
    3.0181     0.0035
    3.0191     0.0034
    3.0201     0.0034
    3.0211     0.0034
    3.0221     0.0033
    3.0231     0.0033
    3.0241     0.0033
    3.0251     0.0032
    3.0261     0.0032
    3.0271     0.0031
    3.0281     0.0031
    3.0291     0.0031
    3.0301     0.0030
  3.031     0.3010E-2
  3.032     0.2977E-2
  3.033     0.2945E-2
  3.034     0.2913E-2
  3.035     0.2882E-2
  3.036     0.2852E-2
  3.037     0.2821E-2
  3.038     0.2792E-2
  3.039     0.2762E-2
  3.040     0.2734E-2
  3.041     0.2705E-2
  3.042     0.2677E-2
  3.043     0.2650E-2
  3.044     0.2623E-2
  3.045     0.2596E-2
  3.046     0.2570E-2
  3.047     0.2544E-2
  3.048     0.2519E-2
  3.049     0.2494E-2
  3.050     0.2469E-2
  3.051     0.2445E-2
  3.052     0.2421E-2
  3.053     0.2397E-2
  3.054     0.2374E-2
  3.055     0.2351E-2
  3.056     0.2328E-2
  3.057     0.2306E-2
  3.058     0.2284E-2
  3.059     0.2262E-2
  3.060     0.2241E-2
  3.061     0.2220E-2
  3.062     0.2199E-2
  3.063     0.2179E-2
  3.064     0.2159E-2
  3.065     0.2139E-2
  3.066     0.2119E-2
  3.067     0.2100E-2
  3.068     0.2081E-2
  3.069     0.2062E-2
  3.070     0.2043E-2
  3.071     0.2025E-2
  3.072     0.2007E-2
  3.073     0.1989E-2
  3.074     0.1971E-2
  3.075     0.1954E-2
  3.076     0.1937E-2
  3.077     0.1920E-2
  3.078     0.1903E-2
  3.079     0.1887E-2
  3.080     0.1871E-2
  3.081     0.1854E-2
  3.082     0.1839E-2
  3.083     0.1823E-2
  3.084     0.1808E-2
  3.085     0.1792E-2
  3.086     0.1777E-2
  3.087     0.1762E-2
  3.088     0.1748E-2
  3.089     0.1733E-2
  3.090     0.1719E-2
  3.091     0.1705E-2
  3.092     0.1691E-2
  3.093     0.1677E-2
  3.094     0.1663E-2
  3.095     0.1650E-2
  3.096     0.1636E-2
  3.097     0.1623E-2
  3.098     0.1610E-2
  3.099     0.1597E-2
  3.100     0.1585E-2
  3.101     0.1572E-2
  3.102     0.1560E-2
  3.103     0.1548E-2
  3.104     0.1536E-2
  3.105     0.1524E-2
  3.106     0.1512E-2
  3.107     0.1500E-2
  3.108     0.1489E-2
  3.109     0.1477E-2
  3.110     0.1466E-2
  3.111     0.1455E-2
  3.112     0.1444E-2
  3.113     0.1433E-2
  3.114     0.1422E-2
  3.115     0.1411E-2
  3.116     0.1401E-2
  3.117     0.1390E-2
  3.118     0.1380E-2
  3.119     0.1370E-2
  3.120     0.1360E-2
  3.121     0.1350E-2
  3.122     0.1340E-2
  3.123     0.1330E-2
  3.124     0.1321E-2
  3.125     0.1311E-2
  3.126     0.1302E-2
  3.127     0.1292E-2
  3.128     0.1283E-2
  3.129     0.1274E-2
  3.130     0.1265E-2
  3.131     0.1256E-2
  3.132     0.1247E-2
  3.133     0.1238E-2
  3.134     0.1230E-2
  3.135     0.1221E-2
  3.136     0.1213E-2
  3.137     0.1204E-2
  3.138     0.1196E-2
  3.139     0.1188E-2
  3.140     0.1180E-2
  3.141     0.1171E-2
  3.142     0.1163E-2
  3.143     0.1156E-2
  3.144     0.1148E-2
  3.145     0.1140E-2
  3.146     0.1132E-2
  3.147     0.1125E-2
  3.148     0.1117E-2
  3.149     0.1110E-2
  3.150     0.1103E-2
  3.151     0.1095E-2
  3.152     0.1088E-2
  3.153     0.1081E-2
  3.154     0.1074E-2
  3.155     0.1067E-2
  3.156     0.1060E-2
  3.157     0.1053E-2
  3.158     0.1046E-2
  3.159     0.1040E-2
  3.160     0.1033E-2
  3.161     0.1026E-2
  3.162     0.1020E-2
  3.163     0.1013E-2
  3.164     0.1007E-2
  3.165     0.1000E-2
  3.166     0.9941E-3
  3.167     0.9879E-3
  3.168     0.9817E-3
  3.169     0.9756E-3
  3.170     0.9695E-3
  3.171     0.9635E-3
  3.172     0.9576E-3
  3.173     0.9517E-3
  3.174     0.9458E-3
  3.175     0.9401E-3
  3.176     0.9343E-3
  3.177     0.9286E-3
  3.178     0.9230E-3
  3.179     0.9174E-3
  3.180     0.9119E-3
  3.181     0.9064E-3
  3.182     0.9010E-3
  3.183     0.8956E-3
  3.184     0.8903E-3
  3.185     0.8850E-3
  3.186     0.8797E-3
  3.187     0.8746E-3
  3.188     0.8694E-3
  3.189     0.8643E-3
  3.190     0.8592E-3
  3.191     0.8542E-3
  3.192     0.8493E-3
  3.193     0.8443E-3
  3.194     0.8395E-3
  3.195     0.8346E-3
  3.196     0.8298E-3
  3.197     0.8251E-3
  3.198     0.8203E-3
  3.199     0.8157E-3
  3.200     0.8110E-3
  3.201     0.8064E-3
  3.202     0.8019E-3
  3.203     0.7973E-3
  3.204     0.7929E-3
  3.205     0.7884E-3
  3.206     0.7840E-3
  3.207     0.7796E-3
  3.208     0.7753E-3
  3.209     0.7710E-3
  3.210     0.7667E-3
  3.211     0.7625E-3
  3.212     0.7583E-3
  3.213     0.7542E-3
  3.214     0.7500E-3
  3.215     0.7460E-3
  3.216     0.7419E-3
  3.217     0.7379E-3
  3.218     0.7339E-3
  3.219     0.7299E-3
  3.220     0.7260E-3
  3.221     0.7221E-3
  3.222     0.7182E-3
  3.223     0.7144E-3
  3.224     0.7106E-3
  3.225     0.7068E-3
  3.226     0.7031E-3
  3.227     0.6994E-3
  3.228     0.6957E-3
  3.229     0.6920E-3
  3.230     0.6884E-3
  3.231     0.6848E-3
  3.232     0.6812E-3
  3.233     0.6777E-3
  3.234     0.6742E-3
  3.235     0.6707E-3
  3.236     0.6672E-3
  3.237     0.6638E-3
  3.238     0.6604E-3
  3.239     0.6570E-3
  3.240     0.6537E-3
  3.241     0.6503E-3
  3.242     0.6470E-3
  3.243     0.6438E-3
  3.244     0.6405E-3
  3.245     0.6373E-3
  3.246     0.6341E-3
  3.247     0.6309E-3
  3.248     0.6277E-3
  3.249     0.6246E-3
  3.250     0.6215E-3
  3.251     0.6184E-3
  3.252     0.6154E-3
  3.253     0.6123E-3
  3.254     0.6093E-3
  3.255     0.6063E-3
  3.256     0.6033E-3
  3.257     0.6004E-3
  3.258     0.5974E-3
  3.259     0.5945E-3
  3.260     0.5916E-3
  3.261     0.5888E-3
  3.262     0.5859E-3
  3.263     0.5831E-3
  3.264     0.5803E-3
  3.265     0.5775E-3
  3.266     0.5747E-3
  3.267     0.5720E-3
  3.268     0.5693E-3
  3.269     0.5666E-3
  3.270     0.5639E-3
  3.271     0.5612E-3
  3.272     0.5586E-3
  3.273     0.5559E-3
  3.274     0.5533E-3
  3.275     0.5507E-3
  3.276     0.5482E-3
  3.277     0.5456E-3
  3.278     0.5431E-3
  3.279     0.5405E-3
  3.280     0.5380E-3
  3.281     0.5355E-3
  3.282     0.5331E-3
  3.283     0.5306E-3
  3.284     0.5282E-3
  3.285     0.5258E-3
  3.286     0.5234E-3
  3.287     0.5210E-3
  3.288     0.5186E-3
  3.289     0.5163E-3
  3.290     0.5139E-3
  3.291     0.5116E-3
  3.292     0.5093E-3
  3.293     0.5070E-3
  3.294     0.5047E-3
  3.295     0.5025E-3
  3.296     0.5002E-3
  3.297     0.4980E-3
  3.298     0.4958E-3
  3.299     0.4936E-3
  3.300     0.4914E-3
  3.301     0.4892E-3
  3.302     0.4871E-3
  3.303     0.4849E-3
  3.304     0.4828E-3
  3.305     0.4807E-3
  3.306     0.4786E-3
  3.307     0.4765E-3
  3.308     0.4744E-3
  3.309     0.4724E-3
  3.310     0.4703E-3
  3.311     0.4683E-3
  3.312     0.4663E-3
  3.313     0.4643E-3
  3.314     0.4623E-3
  3.315     0.4603E-3
  3.316     0.4583E-3
  3.317     0.4564E-3
  3.318     0.4544E-3
  3.319     0.4525E-3
  3.320     0.4506E-3
  3.321     0.4487E-3
  3.322     0.4468E-3
  3.323     0.4449E-3
  3.324     0.4430E-3
  3.325     0.4412E-3
  3.326     0.4393E-3
  3.327     0.4375E-3
  3.328     0.4357E-3
  3.329     0.4338E-3
  3.330     0.4320E-3
  3.331     0.4302E-3
  3.332     0.4285E-3
  3.333     0.4267E-3
  3.334     0.4249E-3
  3.335     0.4232E-3
  3.336     0.4215E-3
  3.337     0.4197E-3
  3.338     0.4180E-3
  3.339     0.4163E-3
  3.340     0.4146E-3
  3.341     0.4129E-3
  3.342     0.4113E-3
  3.343     0.4096E-3
  3.344     0.4080E-3
  3.345     0.4063E-3
  3.346     0.4047E-3
  3.347     0.4031E-3
  3.348     0.4014E-3
# 
# 06/20/2019 at 00:18 YPP @ br018.pvt.bridges.psc.edu [start]
# 06/20/2019 at 00:19                                 [end]
#  
# Timing   [Min/Max/Average]: 02s/02s/02s
#
# .-Input file : amp.in
# | excitons                     # [R] Excitons
# | amplitude                    # [R] Amplitude
# | BoseTemp=  0.02585     eV    # Bosonic Temperature
# | States= "1 - 20"             # Index of the BS state(s)
# | #DipWeight                   #  Weight the contribution to the exciton WFs with the dipoles
# | Degen_Step=0.1000E-4   eV    # Maximum energy separation of two degenerate states
