#                                                           
#   __   __     _        __  __       ____      U  ___  u   
#   \ \ / / U  /"\  U u |" \/ "| u U | __") u    \/"_ \/    
#    \ V /   \/ _ \/   \| |\/| |/   \|  _ \/     | | | |    
#   U_|"|_u  / ___ \    | |  | |     | |_) | .-,_| |_| |    
#     |_|   /_/   \_\   |_|  |_|     |____/   \_)-\___/     
# .-,//|(_   \\    >>  <<,-,,-.     _|| \\_        \\       
#  \_) (__) (__)  (__)  (./  \.)   (__) (__)      (__)      
#                                                           
#                                                           
#              GPL Version 4.1.4 Revision 76                
#                        MPI Build                          
#                http://www.yambo-code.org                  
#
# BSK|Identifier              :9599
#    |Dimension               :5098
#    |Bands                   :524 - 624
#    |Exchange           [res]: yes
#    |Correlation        [res]: no
#    |Kernel`s coupling       : no
#    |Exchange           [cpl]: no
#    |Correlation        [cpl]: no
#    |W interaction is bare   : no
#    |ALDA kernel in R-space  : no
#    |RL vectors    [exchange]:55207
#    |E/h energy range    [ev]:-1.000000 - -1.000000
#    |Coupling range     [o/o]: 100.0000 -  100.0000
#
# Electron-Hole pairs that contributes to Excitonic State 15 more than 5%
#
#  E    [eV]  Amplitude
#  
  2.458     0.4414E-3
  2.459     0.4432E-3
  2.460     0.4450E-3
  2.461     0.4469E-3
  2.462     0.4487E-3
  2.463     0.4505E-3
  2.464     0.4524E-3
  2.465     0.4543E-3
  2.466     0.4562E-3
  2.467     0.4581E-3
  2.468     0.4600E-3
  2.469     0.4619E-3
  2.470     0.4638E-3
  2.472     0.4658E-3
  2.473     0.4677E-3
  2.474     0.4697E-3
  2.475     0.4717E-3
  2.476     0.4737E-3
  2.477     0.4757E-3
  2.478     0.4777E-3
  2.479     0.4797E-3
  2.480     0.4818E-3
  2.481     0.4838E-3
  2.482     0.4859E-3
  2.483     0.4880E-3
  2.484     0.4901E-3
  2.485     0.4922E-3
  2.486     0.4944E-3
  2.487     0.4965E-3
  2.488     0.4986E-3
  2.489     0.5008E-3
  2.490     0.5030E-3
  2.491     0.5052E-3
  2.492     0.5074E-3
  2.493     0.5096E-3
  2.495     0.5119E-3
  2.496     0.5141E-3
  2.497     0.5164E-3
  2.498     0.5187E-3
  2.499     0.5210E-3
  2.500     0.5233E-3
  2.501     0.5256E-3
  2.502     0.5280E-3
  2.503     0.5304E-3
  2.504     0.5327E-3
  2.505     0.5351E-3
  2.506     0.5375E-3
  2.507     0.5400E-3
  2.508     0.5424E-3
  2.509     0.5449E-3
  2.510     0.5474E-3
  2.511     0.5498E-3
  2.512     0.5524E-3
  2.513     0.5549E-3
  2.514     0.5574E-3
  2.515     0.5600E-3
  2.516     0.5626E-3
  2.518     0.5652E-3
  2.519     0.5678E-3
  2.520     0.5704E-3
  2.521     0.5731E-3
  2.522     0.5758E-3
  2.523     0.5785E-3
  2.524     0.5812E-3
  2.525     0.5839E-3
  2.526     0.5866E-3
  2.527     0.5894E-3
  2.528     0.5922E-3
  2.529     0.5950E-3
  2.530     0.5978E-3
  2.531     0.6007E-3
  2.532     0.6036E-3
  2.533     0.6064E-3
  2.534     0.6094E-3
  2.535     0.6123E-3
  2.536     0.6152E-3
  2.537     0.6182E-3
  2.538     0.6212E-3
  2.540     0.6242E-3
  2.541     0.6273E-3
  2.542     0.6303E-3
  2.543     0.6334E-3
  2.544     0.6365E-3
  2.545     0.6396E-3
  2.546     0.6428E-3
  2.547     0.6460E-3
  2.548     0.6492E-3
  2.549     0.6524E-3
  2.550     0.6556E-3
  2.551     0.6589E-3
  2.552     0.6622E-3
  2.553     0.6655E-3
  2.554     0.6689E-3
  2.555     0.6723E-3
  2.556     0.6757E-3
  2.557     0.6791E-3
  2.558     0.6825E-3
  2.559     0.6860E-3
  2.560     0.6895E-3
  2.561     0.6930E-3
  2.563     0.6966E-3
  2.564     0.7002E-3
  2.565     0.7038E-3
  2.566     0.7074E-3
  2.567     0.7111E-3
  2.568     0.7148E-3
  2.569     0.7185E-3
  2.570     0.7223E-3
  2.571     0.7260E-3
  2.572     0.7299E-3
  2.573     0.7337E-3
  2.574     0.7376E-3
  2.575     0.7415E-3
  2.576     0.7454E-3
  2.577     0.7494E-3
  2.578     0.7534E-3
  2.579     0.7574E-3
  2.580     0.7615E-3
  2.581     0.7656E-3
  2.582     0.7697E-3
  2.583     0.7739E-3
  2.584     0.7781E-3
  2.586     0.7823E-3
  2.587     0.7866E-3
  2.588     0.7909E-3
  2.589     0.7952E-3
  2.590     0.7996E-3
  2.591     0.8040E-3
  2.592     0.8084E-3
  2.593     0.8129E-3
  2.594     0.8174E-3
  2.595     0.8220E-3
  2.596     0.8266E-3
  2.597     0.8312E-3
  2.598     0.8359E-3
  2.599     0.8406E-3
  2.600     0.8454E-3
  2.601     0.8501E-3
  2.602     0.8550E-3
  2.603     0.8599E-3
  2.604     0.8648E-3
  2.605     0.8697E-3
  2.606     0.8747E-3
  2.608     0.8798E-3
  2.609     0.8849E-3
  2.610     0.8900E-3
  2.611     0.8952E-3
  2.612     0.9004E-3
  2.613     0.9057E-3
  2.614     0.9110E-3
  2.615     0.9163E-3
  2.616     0.9218E-3
  2.617     0.9272E-3
  2.618     0.9327E-3
  2.619     0.9383E-3
  2.620     0.9439E-3
  2.621     0.9495E-3
  2.622     0.9552E-3
  2.623     0.9610E-3
  2.624     0.9668E-3
  2.625     0.9727E-3
  2.626     0.9786E-3
  2.627     0.9846E-3
  2.628     0.9906E-3
  2.629     0.9967E-3
  2.631     0.1003E-2
  2.632     0.1009E-2
  2.633     0.1015E-2
  2.634     0.1022E-2
  2.635     0.1028E-2
  2.636     0.1034E-2
  2.637     0.1041E-2
  2.638     0.1047E-2
  2.639     0.1054E-2
  2.640     0.1061E-2
  2.641     0.1067E-2
  2.642     0.1074E-2
  2.643     0.1081E-2
  2.644     0.1088E-2
  2.645     0.1095E-2
  2.646     0.1102E-2
  2.647     0.1109E-2
  2.648     0.1116E-2
  2.649     0.1124E-2
  2.650     0.1131E-2
  2.651     0.1139E-2
  2.652     0.1146E-2
  2.654     0.1154E-2
  2.655     0.1161E-2
  2.656     0.1169E-2
  2.657     0.1177E-2
  2.658     0.1185E-2
  2.659     0.1193E-2
  2.660     0.1201E-2
  2.661     0.1209E-2
  2.662     0.1217E-2
  2.663     0.1225E-2
  2.664     0.1234E-2
  2.665     0.1242E-2
  2.666     0.1251E-2
  2.667     0.1259E-2
  2.668     0.1268E-2
  2.669     0.1277E-2
  2.670     0.1286E-2
  2.671     0.1295E-2
  2.672     0.1304E-2
  2.673     0.1313E-2
  2.674     0.1322E-2
  2.675     0.1332E-2
  2.677     0.1341E-2
  2.678     0.1351E-2
  2.679     0.1360E-2
  2.680     0.1370E-2
  2.681     0.1380E-2
  2.682     0.1390E-2
  2.683     0.1400E-2
  2.684     0.1410E-2
  2.685     0.1421E-2
  2.686     0.1431E-2
  2.687     0.1442E-2
  2.688     0.1452E-2
  2.689     0.1463E-2
  2.690     0.1474E-2
  2.691     0.1485E-2
  2.692     0.1496E-2
  2.693     0.1508E-2
  2.694     0.1519E-2
  2.695     0.1531E-2
  2.696     0.1542E-2
  2.697     0.1554E-2
  2.699     0.1566E-2
  2.700     0.1578E-2
  2.701     0.1591E-2
  2.702     0.1603E-2
  2.703     0.1615E-2
  2.704     0.1628E-2
  2.705     0.1641E-2
  2.706     0.1654E-2
  2.707     0.1667E-2
  2.708     0.1680E-2
  2.709     0.1694E-2
  2.710     0.1707E-2
  2.711     0.1721E-2
  2.712     0.1735E-2
  2.713     0.1749E-2
  2.714     0.1764E-2
  2.715     0.1778E-2
  2.716     0.1793E-2
  2.717     0.1808E-2
  2.718     0.1823E-2
  2.719     0.1838E-2
  2.720     0.1853E-2
  2.722     0.1869E-2
  2.723     0.1885E-2
  2.724     0.1901E-2
  2.725     0.1917E-2
  2.726     0.1933E-2
  2.727     0.1950E-2
  2.728     0.1967E-2
  2.729     0.1984E-2
  2.730     0.2001E-2
  2.731     0.2018E-2
  2.732     0.2036E-2
  2.733     0.2054E-2
  2.734     0.2072E-2
  2.735     0.2091E-2
  2.736     0.2109E-2
  2.737     0.2128E-2
  2.738     0.2147E-2
  2.739     0.2167E-2
  2.740     0.2187E-2
  2.741     0.2207E-2
  2.742     0.2227E-2
  2.743     0.2247E-2
  2.745     0.2268E-2
  2.746     0.2289E-2
  2.747     0.2311E-2
  2.748     0.2333E-2
  2.749     0.2355E-2
  2.750     0.2377E-2
  2.751     0.2400E-2
  2.752     0.2423E-2
  2.753     0.2446E-2
  2.754     0.2470E-2
  2.755     0.2494E-2
  2.756     0.2518E-2
  2.757     0.2543E-2
  2.758     0.2568E-2
  2.759     0.2593E-2
  2.760     0.2619E-2
  2.761     0.2645E-2
  2.762     0.2672E-2
  2.763     0.2699E-2
  2.764     0.2726E-2
  2.765     0.2754E-2
    2.7665     0.0028
    2.7675     0.0028
    2.7686     0.0028
    2.7696     0.0029
    2.7707     0.0029
    2.7717     0.0029
    2.7728     0.0030
    2.7738     0.0030
    2.7749     0.0030
    2.7759     0.0031
    2.7770     0.0031
    2.7780     0.0031
    2.7791     0.0032
    2.7801     0.0032
    2.7811     0.0032
    2.7822     0.0033
    2.7832     0.0033
    2.7843     0.0033
    2.7853     0.0034
    2.7864     0.0034
    2.7874     0.0035
    2.7885     0.0035
    2.7895     0.0035
    2.7906     0.0036
    2.7916     0.0036
    2.7927     0.0037
    2.7937     0.0037
    2.7947     0.0037
    2.7958     0.0038
    2.7968     0.0038
    2.7979     0.0039
    2.7989     0.0039
    2.8000     0.0040
    2.8010     0.0040
    2.8021     0.0041
    2.8031     0.0041
    2.8042     0.0042
    2.8052     0.0042
    2.8063     0.0043
    2.8073     0.0043
    2.8083     0.0044
    2.8094     0.0045
    2.8104     0.0045
    2.8115     0.0046
    2.8125     0.0046
    2.8136     0.0047
    2.8146     0.0048
    2.8157     0.0048
    2.8167     0.0049
    2.8178     0.0050
    2.8188     0.0050
    2.8199     0.0051
    2.8209     0.0052
    2.8219     0.0052
    2.8230     0.0053
    2.8240     0.0054
    2.8251     0.0055
    2.8261     0.0055
    2.8272     0.0056
    2.8282     0.0057
    2.8293     0.0058
    2.8303     0.0059
    2.8314     0.0060
    2.8324     0.0061
    2.8334     0.0062
    2.8345     0.0062
    2.8355     0.0063
    2.8366     0.0064
    2.8376     0.0065
    2.8387     0.0067
    2.8397     0.0068
    2.8408     0.0069
    2.8418     0.0070
    2.8429     0.0071
    2.8439     0.0072
    2.8450     0.0073
    2.8460     0.0075
    2.8470     0.0076
    2.8481     0.0077
    2.8491     0.0078
    2.8502     0.0080
    2.8512     0.0081
    2.8523     0.0083
    2.8533     0.0084
    2.8544     0.0086
    2.8554     0.0087
    2.8565     0.0089
    2.8575     0.0090
    2.8586     0.0092
    2.8596     0.0094
    2.8606     0.0096
    2.8617     0.0097
    2.8627     0.0099
   2.86379    0.01013
   2.86483    0.01033
   2.86588    0.01054
   2.86692    0.01075
   2.86797    0.01097
   2.86902    0.01120
   2.87006    0.01143
   2.87111    0.01167
   2.87215    0.01192
   2.87320    0.01218
   2.87425    0.01244
   2.87529    0.01272
   2.87634    0.01300
   2.87738    0.01329
   2.87843    0.01359
   2.87948    0.01390
   2.88052    0.01423
   2.88157    0.01456
   2.88261    0.01491
   2.88366    0.01527
   2.88471    0.01564
   2.88575    0.01603
   2.88680    0.01643
   2.88784    0.01684
   2.88889    0.01727
   2.88994    0.01772
   2.89098    0.01819
   2.89203    0.01867
   2.89307    0.01917
   2.89412    0.01970
   2.89517    0.02024
   2.89621    0.02081
   2.89726    0.02141
   2.89830    0.02202
   2.89935    0.02267
   2.90040    0.02334
   2.90144    0.02405
   2.90249    0.02479
   2.90353    0.02556
   2.90458    0.02637
   2.90563    0.02721
   2.90667    0.02810
   2.90772    0.02903
   2.90876    0.03001
   2.90981    0.03104
   2.91086    0.03212
   2.91190    0.03326
   2.91295    0.03446
   2.91400    0.03573
   2.91504    0.03707
   2.91609    0.03848
   2.91713    0.03998
   2.91818    0.04156
   2.91923    0.04324
   2.92027    0.04502
   2.92132    0.04691
   2.92236    0.04892
   2.92341    0.05107
   2.92446    0.05335
   2.92550    0.05580
   2.92655    0.05841
   2.92759    0.06120
   2.92864    0.06420
   2.92969    0.06743
   2.93073    0.07089
   2.93178    0.07463
   2.93282    0.07866
   2.93387    0.08302
   2.93492    0.08775
   2.93596    0.09288
   2.93701    0.09846
  2.938054   0.104548
  2.939100   0.111196
  2.940146   0.118474
  2.941192   0.126459
  2.942238   0.135238
  2.943284   0.144913
  2.944330   0.155594
  2.945376   0.167412
  2.946422   0.180505
  2.947469   0.195038
  2.948514   0.211175
  2.949561   0.229109
  2.950607   0.249025
  2.951653   0.271127
  2.952699   0.295597
  2.953745   0.322634
  2.954791   0.352410
  2.955837   0.385133
  2.956883   0.421014
  2.957929   0.460335
  2.958975   0.503388
  2.960021   0.550479
  2.961067   0.601753
  2.962113   0.657088
  2.963159   0.715797
  2.964205   0.776487
  2.965251   0.836790
  2.966297   0.893346
  2.967343   0.942021
  2.968389   0.978386
  2.969435   0.998530
  2.970481   1.000000
  2.971528   0.982428
  2.972574   0.947654
  2.973619   0.899210
  2.974666   0.841456
  2.975712   0.778749
  2.976758   0.714808
  2.977804   0.652397
  2.978850   0.593392
  2.979896   0.538838
  2.980942   0.489225
  2.981988   0.444604
  2.983034   0.404808
  2.984080   0.369497
  2.985126   0.338296
  2.986172   0.310785
  2.987218   0.286576
  2.988264   0.265282
  2.989310   0.246561
  2.990356   0.230082
  2.991402   0.215553
  2.992448   0.202700
  2.993494   0.191288
  2.994540   0.181107
  2.995586   0.171991
  2.996633   0.163796
  2.997679   0.156406
  2.998724   0.149700
  2.999770   0.143551
  3.000817   0.137810
  3.001863   0.132316
  3.002909   0.126911
  3.003955   0.121474
  3.005001   0.115929
  3.006047   0.110275
  3.007093   0.104559
   3.00814    0.09887
   3.00919    0.09330
   3.01023    0.08794
   3.01128    0.08285
   3.01232    0.07808
   3.01337    0.07363
   3.01442    0.06951
   3.01546    0.06570
   3.01651    0.06220
   3.01755    0.05897
   3.01860    0.05599
   3.01965    0.05324
   3.02069    0.05070
   3.02174    0.04835
   3.02278    0.04617
   3.02383    0.04414
   3.02488    0.04225
   3.02592    0.04049
   3.02697    0.03885
   3.02801    0.03731
   3.02906    0.03586
   3.03011    0.03450
   3.03115    0.03323
   3.03220    0.03202
   3.03324    0.03089
   3.03429    0.02981
   3.03534    0.02880
   3.03638    0.02783
   3.03743    0.02692
   3.03847    0.02605
   3.03952    0.02523
   3.04057    0.02445
   3.04161    0.02370
   3.04266    0.02299
   3.04370    0.02231
   3.04475    0.02166
   3.04580    0.02104
   3.04684    0.02044
   3.04789    0.01988
   3.04893    0.01933
   3.04998    0.01881
   3.05103    0.01831
   3.05207    0.01783
   3.05312    0.01737
   3.05416    0.01693
   3.05521    0.01650
   3.05626    0.01609
   3.05730    0.01570
   3.05835    0.01532
   3.05940    0.01495
   3.06044    0.01460
   3.06149    0.01426
   3.06253    0.01393
   3.06358    0.01361
   3.06463    0.01330
   3.06567    0.01301
   3.06672    0.01272
   3.06776    0.01244
   3.06881    0.01218
   3.06986    0.01192
   3.07090    0.01167
   3.07195    0.01142
   3.07299    0.01119
   3.07404    0.01096
   3.07509    0.01074
   3.07613    0.01053
   3.07718    0.01032
   3.07822    0.01012
    3.0793     0.0099
    3.0803     0.0097
    3.0814     0.0095
    3.0824     0.0094
    3.0835     0.0092
    3.0845     0.0090
    3.0855     0.0089
    3.0866     0.0087
    3.0876     0.0085
    3.0887     0.0084
    3.0897     0.0082
    3.0908     0.0081
    3.0918     0.0080
    3.0929     0.0078
    3.0939     0.0077
    3.0950     0.0076
    3.0960     0.0074
    3.0971     0.0073
    3.0981     0.0072
    3.0991     0.0071
    3.1002     0.0070
    3.1012     0.0068
    3.1023     0.0067
    3.1033     0.0066
    3.1044     0.0065
    3.1054     0.0064
    3.1065     0.0063
    3.1075     0.0062
    3.1086     0.0061
    3.1096     0.0060
    3.1107     0.0059
    3.1117     0.0059
    3.1127     0.0058
    3.1138     0.0057
    3.1148     0.0056
    3.1159     0.0055
    3.1169     0.0054
    3.1180     0.0054
    3.1190     0.0053
    3.1201     0.0052
    3.1211     0.0051
    3.1222     0.0051
    3.1232     0.0050
    3.1242     0.0049
    3.1253     0.0049
    3.1263     0.0048
    3.1274     0.0047
    3.1284     0.0047
    3.1295     0.0046
    3.1305     0.0046
    3.1316     0.0045
    3.1326     0.0044
    3.1337     0.0044
    3.1347     0.0043
    3.1358     0.0043
    3.1368     0.0042
    3.1378     0.0042
    3.1389     0.0041
    3.1399     0.0041
    3.1410     0.0040
    3.1420     0.0040
    3.1431     0.0039
    3.1441     0.0039
    3.1452     0.0038
    3.1462     0.0038
    3.1473     0.0037
    3.1483     0.0037
    3.1494     0.0036
    3.1504     0.0036
    3.1514     0.0036
    3.1525     0.0035
    3.1535     0.0035
    3.1546     0.0034
    3.1556     0.0034
    3.1567     0.0034
    3.1577     0.0033
    3.1588     0.0033
    3.1598     0.0033
    3.1609     0.0032
    3.1619     0.0032
  3.163     0.3147E-2
  3.164     0.3113E-2
  3.165     0.3079E-2
  3.166     0.3046E-2
  3.167     0.3014E-2
  3.168     0.2982E-2
  3.169     0.2950E-2
  3.170     0.2920E-2
  3.171     0.2889E-2
  3.172     0.2859E-2
  3.173     0.2830E-2
  3.174     0.2801E-2
  3.176     0.2772E-2
  3.177     0.2744E-2
  3.178     0.2716E-2
  3.179     0.2689E-2
  3.180     0.2662E-2
  3.181     0.2636E-2
  3.182     0.2609E-2
  3.183     0.2584E-2
  3.184     0.2558E-2
  3.185     0.2533E-2
  3.186     0.2509E-2
  3.187     0.2485E-2
  3.188     0.2461E-2
  3.189     0.2437E-2
  3.190     0.2414E-2
  3.191     0.2391E-2
  3.192     0.2369E-2
  3.193     0.2346E-2
  3.194     0.2324E-2
  3.195     0.2303E-2
  3.196     0.2281E-2
  3.197     0.2260E-2
  3.199     0.2240E-2
  3.200     0.2219E-2
  3.201     0.2199E-2
  3.202     0.2179E-2
  3.203     0.2159E-2
  3.204     0.2140E-2
  3.205     0.2121E-2
  3.206     0.2102E-2
  3.207     0.2084E-2
  3.208     0.2065E-2
  3.209     0.2047E-2
  3.210     0.2029E-2
  3.211     0.2012E-2
  3.212     0.1994E-2
  3.213     0.1977E-2
  3.214     0.1960E-2
  3.215     0.1943E-2
  3.216     0.1927E-2
  3.217     0.1910E-2
  3.218     0.1894E-2
  3.219     0.1878E-2
  3.220     0.1863E-2
  3.222     0.1847E-2
  3.223     0.1832E-2
  3.224     0.1817E-2
  3.225     0.1802E-2
  3.226     0.1787E-2
  3.227     0.1772E-2
  3.228     0.1758E-2
  3.229     0.1744E-2
  3.230     0.1730E-2
  3.231     0.1716E-2
  3.232     0.1702E-2
  3.233     0.1689E-2
  3.234     0.1675E-2
  3.235     0.1662E-2
  3.236     0.1649E-2
  3.237     0.1636E-2
  3.238     0.1623E-2
  3.239     0.1610E-2
  3.240     0.1598E-2
  3.241     0.1586E-2
  3.242     0.1573E-2
  3.243     0.1561E-2
  3.245     0.1549E-2
  3.246     0.1538E-2
  3.247     0.1526E-2
  3.248     0.1515E-2
  3.249     0.1503E-2
  3.250     0.1492E-2
  3.251     0.1481E-2
  3.252     0.1470E-2
  3.253     0.1459E-2
  3.254     0.1448E-2
  3.255     0.1437E-2
  3.256     0.1427E-2
  3.257     0.1417E-2
  3.258     0.1406E-2
  3.259     0.1396E-2
  3.260     0.1386E-2
  3.261     0.1376E-2
  3.262     0.1366E-2
  3.263     0.1356E-2
  3.264     0.1347E-2
  3.265     0.1337E-2
  3.267     0.1328E-2
  3.268     0.1318E-2
  3.269     0.1309E-2
  3.270     0.1300E-2
  3.271     0.1291E-2
  3.272     0.1282E-2
  3.273     0.1273E-2
  3.274     0.1264E-2
  3.275     0.1256E-2
  3.276     0.1247E-2
  3.277     0.1239E-2
  3.278     0.1230E-2
  3.279     0.1222E-2
  3.280     0.1214E-2
  3.281     0.1205E-2
  3.282     0.1197E-2
  3.283     0.1189E-2
  3.284     0.1181E-2
  3.285     0.1173E-2
  3.286     0.1166E-2
  3.287     0.1158E-2
  3.288     0.1150E-2
  3.290     0.1143E-2
  3.291     0.1135E-2
  3.292     0.1128E-2
  3.293     0.1121E-2
  3.294     0.1113E-2
  3.295     0.1106E-2
  3.296     0.1099E-2
  3.297     0.1092E-2
  3.298     0.1085E-2
  3.299     0.1078E-2
  3.300     0.1071E-2
  3.301     0.1065E-2
  3.302     0.1058E-2
  3.303     0.1051E-2
  3.304     0.1045E-2
  3.305     0.1038E-2
  3.306     0.1032E-2
  3.307     0.1025E-2
  3.308     0.1019E-2
  3.309     0.1013E-2
  3.310     0.1006E-2
  3.311     0.1000E-2
  3.313     0.9941E-3
  3.314     0.9880E-3
  3.315     0.9820E-3
  3.316     0.9761E-3
  3.317     0.9702E-3
  3.318     0.9644E-3
  3.319     0.9586E-3
  3.320     0.9528E-3
  3.321     0.9471E-3
  3.322     0.9415E-3
  3.323     0.9359E-3
  3.324     0.9304E-3
  3.325     0.9249E-3
  3.326     0.9195E-3
  3.327     0.9141E-3
  3.328     0.9087E-3
  3.329     0.9034E-3
  3.330     0.8982E-3
  3.331     0.8930E-3
  3.332     0.8878E-3
  3.333     0.8827E-3
  3.335     0.8776E-3
  3.336     0.8726E-3
  3.337     0.8676E-3
  3.338     0.8627E-3
  3.339     0.8578E-3
  3.340     0.8529E-3
  3.341     0.8481E-3
  3.342     0.8433E-3
  3.343     0.8386E-3
  3.344     0.8339E-3
  3.345     0.8292E-3
  3.346     0.8246E-3
  3.347     0.8200E-3
  3.348     0.8155E-3
  3.349     0.8110E-3
  3.350     0.8065E-3
  3.351     0.8021E-3
  3.352     0.7977E-3
  3.353     0.7933E-3
  3.354     0.7890E-3
  3.355     0.7847E-3
  3.356     0.7805E-3
  3.358     0.7763E-3
  3.359     0.7721E-3
  3.360     0.7679E-3
  3.361     0.7638E-3
  3.362     0.7597E-3
  3.363     0.7557E-3
  3.364     0.7517E-3
  3.365     0.7477E-3
  3.366     0.7437E-3
  3.367     0.7398E-3
  3.368     0.7359E-3
  3.369     0.7320E-3
  3.370     0.7282E-3
  3.371     0.7244E-3
  3.372     0.7206E-3
  3.373     0.7169E-3
  3.374     0.7132E-3
  3.375     0.7095E-3
  3.376     0.7058E-3
  3.377     0.7022E-3
  3.378     0.6986E-3
  3.379     0.6950E-3
  3.381     0.6915E-3
  3.382     0.6880E-3
  3.383     0.6845E-3
  3.384     0.6810E-3
  3.385     0.6776E-3
  3.386     0.6742E-3
  3.387     0.6708E-3
  3.388     0.6674E-3
  3.389     0.6641E-3
  3.390     0.6608E-3
  3.391     0.6575E-3
  3.392     0.6542E-3
  3.393     0.6510E-3
  3.394     0.6478E-3
  3.395     0.6446E-3
  3.396     0.6414E-3
  3.397     0.6383E-3
  3.398     0.6352E-3
  3.399     0.6321E-3
  3.400     0.6290E-3
  3.401     0.6259E-3
  3.402     0.6229E-3
  3.404     0.6199E-3
  3.405     0.6169E-3
  3.406     0.6140E-3
  3.407     0.6110E-3
  3.408     0.6081E-3
  3.409     0.6052E-3
  3.410     0.6023E-3
  3.411     0.5994E-3
  3.412     0.5966E-3
  3.413     0.5938E-3
  3.414     0.5910E-3
  3.415     0.5882E-3
  3.416     0.5854E-3
  3.417     0.5827E-3
  3.418     0.5800E-3
  3.419     0.5773E-3
  3.420     0.5746E-3
  3.421     0.5719E-3
  3.422     0.5693E-3
  3.423     0.5667E-3
  3.424     0.5640E-3
  3.426     0.5615E-3
  3.427     0.5589E-3
  3.428     0.5563E-3
  3.429     0.5538E-3
  3.430     0.5513E-3
  3.431     0.5488E-3
  3.432     0.5463E-3
  3.433     0.5438E-3
  3.434     0.5413E-3
  3.435     0.5389E-3
  3.436     0.5365E-3
  3.437     0.5341E-3
  3.438     0.5317E-3
  3.439     0.5293E-3
  3.440     0.5270E-3
  3.441     0.5246E-3
  3.442     0.5223E-3
  3.443     0.5200E-3
  3.444     0.5177E-3
  3.445     0.5154E-3
  3.446     0.5131E-3
  3.447     0.5109E-3
  3.449     0.5087E-3
  3.450     0.5064E-3
  3.451     0.5042E-3
  3.452     0.5020E-3
  3.453     0.4999E-3
  3.454     0.4977E-3
  3.455     0.4956E-3
  3.456     0.4934E-3
  3.457     0.4913E-3
  3.458     0.4892E-3
  3.459     0.4871E-3
  3.460     0.4850E-3
  3.461     0.4829E-3
  3.462     0.4809E-3
  3.463     0.4788E-3
  3.464     0.4768E-3
  3.465     0.4748E-3
  3.466     0.4728E-3
  3.467     0.4708E-3
  3.468     0.4688E-3
  3.469     0.4669E-3
  3.470     0.4649E-3
  3.472     0.4630E-3
  3.473     0.4610E-3
  3.474     0.4591E-3
  3.475     0.4572E-3
  3.476     0.4553E-3
  3.477     0.4535E-3
  3.478     0.4516E-3
  3.479     0.4497E-3
  3.480     0.4479E-3
  3.481     0.4460E-3
  3.482     0.4442E-3
  3.483     0.4424E-3
  3.484     0.4406E-3
  3.485     0.4388E-3
  3.486     0.4370E-3
  3.487     0.4353E-3
  3.488     0.4335E-3
  3.489     0.4318E-3
  3.490     0.4300E-3
  3.491     0.4283E-3
  3.492     0.4266E-3
  3.494     0.4249E-3
  3.495     0.4232E-3
  3.496     0.4215E-3
  3.497     0.4198E-3
  3.498     0.4182E-3
  3.499     0.4165E-3
  3.500     0.4149E-3
  3.501     0.4132E-3
  3.502     0.4116E-3
  3.503     0.4100E-3
# 
# 06/20/2019 at 00:18 YPP @ br018.pvt.bridges.psc.edu [start]
# 06/20/2019 at 00:19                                 [end]
#  
# Timing   [Min/Max/Average]: 02s/02s/02s
#
# .-Input file : amp.in
# | excitons                     # [R] Excitons
# | amplitude                    # [R] Amplitude
# | BoseTemp=  0.02585     eV    # Bosonic Temperature
# | States= "1 - 20"             # Index of the BS state(s)
# | #DipWeight                   #  Weight the contribution to the exciton WFs with the dipoles
# | Degen_Step=0.1000E-4   eV    # Maximum energy separation of two degenerate states
