#                                                           
#   __   __     _        __  __       ____      U  ___  u   
#   \ \ / / U  /"\  U u |" \/ "| u U | __") u    \/"_ \/    
#    \ V /   \/ _ \/   \| |\/| |/   \|  _ \/     | | | |    
#   U_|"|_u  / ___ \    | |  | |     | |_) | .-,_| |_| |    
#     |_|   /_/   \_\   |_|  |_|     |____/   \_)-\___/     
# .-,//|(_   \\    >>  <<,-,,-.     _|| \\_        \\       
#  \_) (__) (__)  (__)  (./  \.)   (__) (__)      (__)      
#                                                           
#                                                           
#              GPL Version 4.1.4 Revision 76                
#                        MPI Build                          
#                http://www.yambo-code.org                  
#
# BSK|Identifier              :9599
#    |Dimension               :5098
#    |Bands                   :524 - 624
#    |Exchange           [res]: yes
#    |Correlation        [res]: no
#    |Kernel`s coupling       : no
#    |Exchange           [cpl]: no
#    |Correlation        [cpl]: no
#    |W interaction is bare   : no
#    |ALDA kernel in R-space  : no
#    |RL vectors    [exchange]:55207
#    |E/h energy range    [ev]:-1.000000 - -1.000000
#    |Coupling range     [o/o]: 100.0000 -  100.0000
#
# Electron-Hole pairs that contributes to Excitonic State 3 more than 5%
#
#  E    [eV]  Amplitude
#  
  2.233     0.3998E-3
  2.234     0.4014E-3
  2.235     0.4031E-3
  2.236     0.4047E-3
  2.237     0.4063E-3
  2.238     0.4080E-3
  2.239     0.4096E-3
  2.240     0.4113E-3
  2.241     0.4129E-3
  2.242     0.4146E-3
  2.243     0.4163E-3
  2.244     0.4180E-3
  2.245     0.4197E-3
  2.246     0.4215E-3
  2.247     0.4232E-3
  2.248     0.4249E-3
  2.249     0.4267E-3
  2.250     0.4285E-3
  2.251     0.4302E-3
  2.252     0.4320E-3
  2.253     0.4338E-3
  2.254     0.4357E-3
  2.255     0.4375E-3
  2.256     0.4393E-3
  2.257     0.4412E-3
  2.258     0.4430E-3
  2.259     0.4449E-3
  2.260     0.4468E-3
  2.261     0.4487E-3
  2.262     0.4506E-3
  2.263     0.4525E-3
  2.264     0.4544E-3
  2.265     0.4564E-3
  2.266     0.4583E-3
  2.267     0.4603E-3
  2.268     0.4623E-3
  2.269     0.4643E-3
  2.270     0.4663E-3
  2.271     0.4683E-3
  2.272     0.4703E-3
  2.273     0.4724E-3
  2.274     0.4744E-3
  2.275     0.4765E-3
  2.276     0.4786E-3
  2.277     0.4807E-3
  2.278     0.4828E-3
  2.279     0.4849E-3
  2.280     0.4871E-3
  2.281     0.4892E-3
  2.282     0.4914E-3
  2.283     0.4936E-3
  2.284     0.4958E-3
  2.285     0.4980E-3
  2.286     0.5002E-3
  2.287     0.5025E-3
  2.288     0.5047E-3
  2.289     0.5070E-3
  2.290     0.5093E-3
  2.291     0.5116E-3
  2.292     0.5139E-3
  2.293     0.5163E-3
  2.294     0.5186E-3
  2.295     0.5210E-3
  2.296     0.5234E-3
  2.297     0.5258E-3
  2.298     0.5282E-3
  2.299     0.5306E-3
  2.300     0.5331E-3
  2.301     0.5355E-3
  2.302     0.5380E-3
  2.303     0.5405E-3
  2.304     0.5431E-3
  2.305     0.5456E-3
  2.306     0.5482E-3
  2.307     0.5507E-3
  2.308     0.5533E-3
  2.309     0.5559E-3
  2.310     0.5586E-3
  2.311     0.5612E-3
  2.312     0.5639E-3
  2.313     0.5666E-3
  2.314     0.5693E-3
  2.315     0.5720E-3
  2.316     0.5747E-3
  2.317     0.5775E-3
  2.318     0.5803E-3
  2.319     0.5831E-3
  2.320     0.5859E-3
  2.321     0.5888E-3
  2.322     0.5916E-3
  2.323     0.5945E-3
  2.324     0.5974E-3
  2.325     0.6004E-3
  2.326     0.6033E-3
  2.327     0.6063E-3
  2.328     0.6093E-3
  2.329     0.6123E-3
  2.330     0.6154E-3
  2.331     0.6184E-3
  2.332     0.6215E-3
  2.333     0.6246E-3
  2.334     0.6277E-3
  2.335     0.6309E-3
  2.336     0.6341E-3
  2.337     0.6373E-3
  2.338     0.6405E-3
  2.339     0.6438E-3
  2.340     0.6470E-3
  2.341     0.6503E-3
  2.342     0.6537E-3
  2.343     0.6570E-3
  2.344     0.6604E-3
  2.345     0.6638E-3
  2.346     0.6672E-3
  2.347     0.6707E-3
  2.348     0.6742E-3
  2.349     0.6777E-3
  2.350     0.6812E-3
  2.351     0.6848E-3
  2.352     0.6884E-3
  2.353     0.6920E-3
  2.354     0.6957E-3
  2.355     0.6994E-3
  2.356     0.7031E-3
  2.357     0.7068E-3
  2.358     0.7106E-3
  2.359     0.7144E-3
  2.360     0.7182E-3
  2.361     0.7221E-3
  2.362     0.7260E-3
  2.363     0.7299E-3
  2.364     0.7339E-3
  2.365     0.7379E-3
  2.366     0.7419E-3
  2.367     0.7460E-3
  2.368     0.7500E-3
  2.369     0.7542E-3
  2.370     0.7583E-3
  2.371     0.7625E-3
  2.372     0.7667E-3
  2.373     0.7710E-3
  2.374     0.7753E-3
  2.375     0.7796E-3
  2.376     0.7840E-3
  2.377     0.7884E-3
  2.378     0.7929E-3
  2.379     0.7973E-3
  2.380     0.8019E-3
  2.381     0.8064E-3
  2.382     0.8110E-3
  2.383     0.8157E-3
  2.384     0.8203E-3
  2.385     0.8251E-3
  2.386     0.8298E-3
  2.387     0.8346E-3
  2.388     0.8395E-3
  2.389     0.8443E-3
  2.390     0.8493E-3
  2.391     0.8542E-3
  2.392     0.8592E-3
  2.393     0.8643E-3
  2.394     0.8694E-3
  2.395     0.8746E-3
  2.396     0.8797E-3
  2.397     0.8850E-3
  2.398     0.8903E-3
  2.399     0.8956E-3
  2.400     0.9010E-3
  2.401     0.9064E-3
  2.402     0.9119E-3
  2.403     0.9174E-3
  2.404     0.9230E-3
  2.405     0.9286E-3
  2.406     0.9343E-3
  2.407     0.9401E-3
  2.408     0.9459E-3
  2.409     0.9517E-3
  2.410     0.9576E-3
  2.411     0.9635E-3
  2.412     0.9695E-3
  2.413     0.9756E-3
  2.414     0.9817E-3
  2.415     0.9879E-3
  2.416     0.9941E-3
  2.417     0.1000E-2
  2.418     0.1007E-2
  2.419     0.1013E-2
  2.420     0.1020E-2
  2.421     0.1026E-2
  2.422     0.1033E-2
  2.423     0.1040E-2
  2.424     0.1046E-2
  2.425     0.1053E-2
  2.426     0.1060E-2
  2.427     0.1067E-2
  2.428     0.1074E-2
  2.429     0.1081E-2
  2.430     0.1088E-2
  2.431     0.1095E-2
  2.432     0.1103E-2
  2.433     0.1110E-2
  2.434     0.1117E-2
  2.435     0.1125E-2
  2.436     0.1132E-2
  2.437     0.1140E-2
  2.438     0.1148E-2
  2.439     0.1156E-2
  2.440     0.1163E-2
  2.441     0.1171E-2
  2.442     0.1180E-2
  2.443     0.1188E-2
  2.444     0.1196E-2
  2.445     0.1204E-2
  2.446     0.1213E-2
  2.447     0.1221E-2
  2.448     0.1230E-2
  2.449     0.1238E-2
  2.450     0.1247E-2
  2.451     0.1256E-2
  2.452     0.1265E-2
  2.453     0.1274E-2
  2.454     0.1283E-2
  2.455     0.1292E-2
  2.456     0.1302E-2
  2.457     0.1311E-2
  2.458     0.1321E-2
  2.459     0.1330E-2
  2.460     0.1340E-2
  2.461     0.1350E-2
  2.462     0.1360E-2
  2.463     0.1370E-2
  2.464     0.1380E-2
  2.465     0.1390E-2
  2.466     0.1401E-2
  2.467     0.1411E-2
  2.468     0.1422E-2
  2.469     0.1433E-2
  2.470     0.1444E-2
  2.471     0.1455E-2
  2.472     0.1466E-2
  2.473     0.1477E-2
  2.474     0.1489E-2
  2.475     0.1500E-2
  2.476     0.1512E-2
  2.477     0.1524E-2
  2.478     0.1536E-2
  2.479     0.1548E-2
  2.480     0.1560E-2
  2.481     0.1572E-2
  2.482     0.1585E-2
  2.483     0.1597E-2
  2.484     0.1610E-2
  2.485     0.1623E-2
  2.486     0.1636E-2
  2.487     0.1650E-2
  2.488     0.1663E-2
  2.489     0.1677E-2
  2.490     0.1691E-2
  2.491     0.1705E-2
  2.492     0.1719E-2
  2.493     0.1733E-2
  2.494     0.1748E-2
  2.495     0.1762E-2
  2.496     0.1777E-2
  2.497     0.1792E-2
  2.498     0.1808E-2
  2.499     0.1823E-2
  2.500     0.1839E-2
  2.501     0.1854E-2
  2.502     0.1871E-2
  2.503     0.1887E-2
  2.504     0.1903E-2
  2.505     0.1920E-2
  2.506     0.1937E-2
  2.507     0.1954E-2
  2.508     0.1971E-2
  2.509     0.1989E-2
  2.510     0.2007E-2
  2.511     0.2025E-2
  2.512     0.2043E-2
  2.513     0.2062E-2
  2.514     0.2081E-2
  2.515     0.2100E-2
  2.516     0.2119E-2
  2.517     0.2139E-2
  2.518     0.2159E-2
  2.519     0.2179E-2
  2.520     0.2199E-2
  2.521     0.2220E-2
  2.522     0.2241E-2
  2.523     0.2262E-2
  2.524     0.2284E-2
  2.525     0.2306E-2
  2.526     0.2328E-2
  2.527     0.2351E-2
  2.528     0.2374E-2
  2.529     0.2397E-2
  2.530     0.2421E-2
  2.531     0.2445E-2
  2.532     0.2469E-2
  2.533     0.2494E-2
  2.534     0.2519E-2
    2.5355     0.0025
    2.5365     0.0026
    2.5375     0.0026
    2.5385     0.0026
    2.5395     0.0026
    2.5405     0.0027
    2.5415     0.0027
    2.5425     0.0027
    2.5435     0.0028
    2.5445     0.0028
    2.5455     0.0028
    2.5465     0.0029
    2.5475     0.0029
    2.5485     0.0029
    2.5495     0.0029
    2.5505     0.0030
    2.5515     0.0030
    2.5525     0.0030
    2.5535     0.0031
    2.5545     0.0031
    2.5555     0.0031
    2.5565     0.0032
    2.5575     0.0032
    2.5585     0.0033
    2.5595     0.0033
    2.5605     0.0033
    2.5615     0.0034
    2.5625     0.0034
    2.5635     0.0034
    2.5645     0.0035
    2.5655     0.0035
    2.5665     0.0036
    2.5675     0.0036
    2.5685     0.0037
    2.5695     0.0037
    2.5705     0.0037
    2.5715     0.0038
    2.5725     0.0038
    2.5735     0.0039
    2.5745     0.0039
    2.5755     0.0040
    2.5765     0.0040
    2.5775     0.0041
    2.5785     0.0041
    2.5795     0.0042
    2.5805     0.0043
    2.5815     0.0043
    2.5825     0.0044
    2.5835     0.0044
    2.5845     0.0045
    2.5855     0.0045
    2.5865     0.0046
    2.5875     0.0047
    2.5885     0.0047
    2.5895     0.0048
    2.5905     0.0049
    2.5915     0.0049
    2.5925     0.0050
    2.5935     0.0051
    2.5945     0.0051
    2.5955     0.0052
    2.5965     0.0053
    2.5975     0.0054
    2.5985     0.0055
    2.5995     0.0055
    2.6005     0.0056
    2.6015     0.0057
    2.6025     0.0058
    2.6035     0.0059
    2.6045     0.0060
    2.6055     0.0061
    2.6065     0.0062
    2.6075     0.0063
    2.6085     0.0064
    2.6095     0.0065
    2.6105     0.0066
    2.6115     0.0067
    2.6125     0.0068
    2.6135     0.0069
    2.6145     0.0070
    2.6155     0.0071
    2.6165     0.0073
    2.6175     0.0074
    2.6185     0.0075
    2.6195     0.0076
    2.6205     0.0078
    2.6215     0.0079
    2.6225     0.0081
    2.6235     0.0082
    2.6245     0.0083
    2.6255     0.0085
    2.6265     0.0087
    2.6275     0.0088
    2.6285     0.0090
    2.6295     0.0092
    2.6305     0.0093
    2.6315     0.0095
    2.6325     0.0097
    2.6335     0.0099
   2.63449    0.01010
   2.63549    0.01031
   2.63649    0.01052
   2.63749    0.01073
   2.63849    0.01096
   2.63949    0.01119
   2.64049    0.01143
   2.64149    0.01168
   2.64249    0.01193
   2.64349    0.01220
   2.64449    0.01247
   2.64549    0.01275
   2.64649    0.01304
   2.64749    0.01334
   2.64849    0.01365
   2.64949    0.01397
   2.65049    0.01431
   2.65149    0.01465
   2.65249    0.01501
   2.65349    0.01538
   2.65449    0.01577
   2.65549    0.01617
   2.65649    0.01659
   2.65749    0.01702
   2.65849    0.01747
   2.65949    0.01793
   2.66049    0.01842
   2.66149    0.01893
   2.66249    0.01945
   2.66349    0.02000
   2.66449    0.02057
   2.66549    0.02117
   2.66649    0.02179
   2.66749    0.02244
   2.66849    0.02312
   2.66949    0.02383
   2.67049    0.02458
   2.67149    0.02536
   2.67249    0.02617
   2.67349    0.02703
   2.67449    0.02793
   2.67549    0.02887
   2.67649    0.02986
   2.67749    0.03090
   2.67849    0.03200
   2.67949    0.03316
   2.68049    0.03438
   2.68149    0.03566
   2.68249    0.03702
   2.68349    0.03846
   2.68449    0.03998
   2.68549    0.04160
   2.68649    0.04331
   2.68749    0.04513
   2.68849    0.04706
   2.68949    0.04912
   2.69049    0.05131
   2.69149    0.05365
   2.69249    0.05615
   2.69349    0.05882
   2.69449    0.06169
   2.69549    0.06477
   2.69649    0.06807
   2.69749    0.07163
   2.69849    0.07547
   2.69949    0.07962
   2.70049    0.08410
   2.70149    0.08897
   2.70249    0.09425
  2.703489   0.100000
  2.704489   0.106270
  2.705489   0.113123
  2.706489   0.120627
  2.707489   0.128865
  2.708489   0.137932
  2.709489   0.147929
  2.710489   0.158984
  2.711489   0.171233
  2.712489   0.184842
  2.713489   0.200001
  2.714489   0.216919
  2.715489   0.235851
  2.716489   0.257069
  2.717489   0.280897
  2.718489   0.307693
  2.719489   0.337836
  2.720489   0.371750
  2.721489   0.409836
  2.722489   0.452494
  2.723489   0.500001
  2.724489   0.552483
  2.725489   0.609760
  2.726489   0.671139
  2.727489   0.735300
  2.728489   0.800001
  2.729489   0.862065
  2.730489   0.917434
  2.731489   0.961537
  2.732489   0.990101
  2.733489   1.000000
  2.734489   0.990101
  2.735489   0.961537
  2.736489   0.917434
  2.737489   0.862065
  2.738489   0.800001
  2.739489   0.735287
  2.740489   0.671139
  2.741489   0.609760
  2.742489   0.552483
  2.743489   0.500001
  2.744489   0.452484
  2.745489   0.409836
  2.746489   0.371750
  2.747489   0.337836
  2.748489   0.307693
  2.749489   0.280897
  2.750489   0.257069
  2.751489   0.235851
  2.752489   0.216919
  2.753489   0.200001
  2.754489   0.184842
  2.755489   0.171233
  2.756489   0.158981
  2.757489   0.147929
  2.758489   0.137932
  2.759489   0.128865
  2.760489   0.120627
  2.761489   0.113121
  2.762489   0.106270
  2.763489   0.100000
   2.76449    0.09425
   2.76549    0.08897
   2.76649    0.08410
   2.76749    0.07962
   2.76849    0.07547
   2.76949    0.07163
   2.77049    0.06807
   2.77149    0.06477
   2.77249    0.06169
   2.77349    0.05882
   2.77449    0.05615
   2.77549    0.05365
   2.77649    0.05131
   2.77749    0.04912
   2.77849    0.04706
   2.77949    0.04513
   2.78049    0.04331
   2.78149    0.04160
   2.78249    0.03998
   2.78349    0.03846
   2.78449    0.03702
   2.78549    0.03566
   2.78649    0.03438
   2.78749    0.03316
   2.78849    0.03200
   2.78949    0.03090
   2.79049    0.02986
   2.79149    0.02887
   2.79249    0.02793
   2.79349    0.02703
   2.79449    0.02617
   2.79549    0.02535
   2.79649    0.02458
   2.79749    0.02383
   2.79849    0.02312
   2.79949    0.02244
   2.80049    0.02179
   2.80149    0.02117
   2.80249    0.02057
   2.80349    0.02000
   2.80449    0.01945
   2.80549    0.01893
   2.80649    0.01842
   2.80749    0.01793
   2.80849    0.01747
   2.80949    0.01702
   2.81049    0.01659
   2.81149    0.01617
   2.81249    0.01577
   2.81349    0.01538
   2.81449    0.01501
   2.81549    0.01465
   2.81649    0.01431
   2.81749    0.01397
   2.81849    0.01365
   2.81949    0.01334
   2.82049    0.01304
   2.82149    0.01275
   2.82249    0.01247
   2.82349    0.01220
   2.82449    0.01193
   2.82549    0.01168
   2.82649    0.01143
   2.82749    0.01119
   2.82849    0.01096
   2.82949    0.01073
   2.83049    0.01052
   2.83149    0.01031
   2.83249    0.01010
    2.8335     0.0099
    2.8345     0.0097
    2.8355     0.0095
    2.8365     0.0093
    2.8375     0.0092
    2.8385     0.0090
    2.8395     0.0088
    2.8405     0.0087
    2.8415     0.0085
    2.8425     0.0083
    2.8435     0.0082
    2.8445     0.0081
    2.8455     0.0079
    2.8465     0.0078
    2.8475     0.0076
    2.8485     0.0075
    2.8495     0.0074
    2.8505     0.0073
    2.8515     0.0071
    2.8525     0.0070
    2.8535     0.0069
    2.8545     0.0068
    2.8555     0.0067
    2.8565     0.0066
    2.8575     0.0065
    2.8585     0.0064
    2.8595     0.0063
    2.8605     0.0062
    2.8615     0.0061
    2.8625     0.0060
    2.8635     0.0059
    2.8645     0.0058
    2.8655     0.0057
    2.8665     0.0056
    2.8675     0.0055
    2.8685     0.0055
    2.8695     0.0054
    2.8705     0.0053
    2.8715     0.0052
    2.8725     0.0051
    2.8735     0.0051
    2.8745     0.0050
    2.8755     0.0049
    2.8765     0.0049
    2.8775     0.0048
    2.8785     0.0047
    2.8795     0.0047
    2.8805     0.0046
    2.8815     0.0045
    2.8825     0.0045
    2.8835     0.0044
    2.8845     0.0044
    2.8855     0.0043
    2.8865     0.0043
    2.8875     0.0042
    2.8885     0.0041
    2.8895     0.0041
    2.8905     0.0040
    2.8915     0.0040
    2.8925     0.0039
    2.8935     0.0039
    2.8945     0.0038
    2.8955     0.0038
    2.8965     0.0037
    2.8975     0.0037
    2.8985     0.0037
    2.8995     0.0036
    2.9005     0.0036
    2.9015     0.0035
    2.9025     0.0035
    2.9035     0.0034
    2.9045     0.0034
    2.9055     0.0034
    2.9065     0.0033
    2.9075     0.0033
    2.9085     0.0033
    2.9095     0.0032
    2.9105     0.0032
    2.9115     0.0031
    2.9125     0.0031
    2.9135     0.0031
    2.9145     0.0030
    2.9155     0.0030
    2.9165     0.0030
    2.9175     0.0029
  2.918     0.2913E-2
  2.919     0.2882E-2
  2.920     0.2852E-2
  2.921     0.2821E-2
  2.922     0.2792E-2
  2.923     0.2762E-2
  2.924     0.2734E-2
  2.925     0.2705E-2
  2.926     0.2677E-2
  2.927     0.2650E-2
  2.928     0.2623E-2
  2.929     0.2596E-2
  2.930     0.2570E-2
  2.931     0.2544E-2
  2.932     0.2519E-2
  2.933     0.2494E-2
  2.934     0.2469E-2
  2.935     0.2445E-2
  2.936     0.2421E-2
  2.937     0.2397E-2
  2.938     0.2374E-2
  2.939     0.2351E-2
  2.940     0.2328E-2
  2.941     0.2306E-2
  2.942     0.2284E-2
  2.943     0.2262E-2
  2.944     0.2241E-2
  2.945     0.2220E-2
  2.946     0.2199E-2
  2.947     0.2179E-2
  2.948     0.2159E-2
  2.949     0.2139E-2
  2.950     0.2119E-2
  2.951     0.2100E-2
  2.952     0.2081E-2
  2.953     0.2062E-2
  2.954     0.2043E-2
  2.955     0.2025E-2
  2.956     0.2007E-2
  2.957     0.1989E-2
  2.958     0.1971E-2
  2.959     0.1954E-2
  2.960     0.1937E-2
  2.961     0.1920E-2
  2.962     0.1903E-2
  2.963     0.1887E-2
  2.964     0.1871E-2
  2.965     0.1854E-2
  2.966     0.1839E-2
  2.967     0.1823E-2
  2.968     0.1808E-2
  2.969     0.1792E-2
  2.970     0.1777E-2
  2.971     0.1762E-2
  2.972     0.1748E-2
  2.973     0.1733E-2
  2.974     0.1719E-2
  2.975     0.1705E-2
  2.976     0.1691E-2
  2.977     0.1677E-2
  2.978     0.1663E-2
  2.979     0.1650E-2
  2.980     0.1636E-2
  2.981     0.1623E-2
  2.982     0.1610E-2
  2.983     0.1597E-2
  2.984     0.1585E-2
  2.985     0.1572E-2
  2.986     0.1560E-2
  2.987     0.1548E-2
  2.988     0.1536E-2
  2.989     0.1524E-2
  2.990     0.1512E-2
  2.991     0.1500E-2
  2.992     0.1489E-2
  2.993     0.1477E-2
  2.994     0.1466E-2
  2.995     0.1455E-2
  2.996     0.1444E-2
  2.997     0.1433E-2
  2.998     0.1422E-2
  2.999     0.1411E-2
  3.000     0.1401E-2
  3.001     0.1390E-2
  3.002     0.1380E-2
  3.003     0.1370E-2
  3.004     0.1360E-2
  3.005     0.1350E-2
  3.006     0.1340E-2
  3.007     0.1330E-2
  3.008     0.1321E-2
  3.009     0.1311E-2
  3.010     0.1302E-2
  3.011     0.1292E-2
  3.012     0.1283E-2
  3.013     0.1274E-2
  3.014     0.1265E-2
  3.015     0.1256E-2
  3.016     0.1247E-2
  3.017     0.1238E-2
  3.018     0.1230E-2
  3.019     0.1221E-2
  3.020     0.1213E-2
  3.021     0.1204E-2
  3.022     0.1196E-2
  3.023     0.1188E-2
  3.024     0.1180E-2
  3.025     0.1171E-2
  3.026     0.1163E-2
  3.027     0.1156E-2
  3.028     0.1148E-2
  3.029     0.1140E-2
  3.030     0.1132E-2
  3.031     0.1125E-2
  3.032     0.1117E-2
  3.033     0.1110E-2
  3.034     0.1103E-2
  3.035     0.1095E-2
  3.036     0.1088E-2
  3.037     0.1081E-2
  3.038     0.1074E-2
  3.039     0.1067E-2
  3.040     0.1060E-2
  3.041     0.1053E-2
  3.042     0.1046E-2
  3.043     0.1040E-2
  3.044     0.1033E-2
  3.045     0.1026E-2
  3.046     0.1020E-2
  3.047     0.1013E-2
  3.048     0.1007E-2
  3.049     0.1000E-2
  3.050     0.9941E-3
  3.051     0.9879E-3
  3.052     0.9817E-3
  3.053     0.9756E-3
  3.054     0.9695E-3
  3.055     0.9635E-3
  3.056     0.9576E-3
  3.057     0.9517E-3
  3.058     0.9459E-3
  3.059     0.9401E-3
  3.060     0.9343E-3
  3.061     0.9286E-3
  3.062     0.9230E-3
  3.063     0.9174E-3
  3.064     0.9119E-3
  3.065     0.9064E-3
  3.066     0.9010E-3
  3.067     0.8956E-3
  3.068     0.8903E-3
  3.069     0.8850E-3
  3.070     0.8797E-3
  3.071     0.8746E-3
  3.072     0.8694E-3
  3.073     0.8643E-3
  3.074     0.8592E-3
  3.075     0.8542E-3
  3.076     0.8493E-3
  3.077     0.8443E-3
  3.078     0.8395E-3
  3.079     0.8346E-3
  3.080     0.8298E-3
  3.081     0.8251E-3
  3.082     0.8203E-3
  3.083     0.8157E-3
  3.084     0.8110E-3
  3.085     0.8064E-3
  3.086     0.8019E-3
  3.087     0.7973E-3
  3.088     0.7929E-3
  3.089     0.7884E-3
  3.090     0.7840E-3
  3.091     0.7796E-3
  3.092     0.7753E-3
  3.093     0.7710E-3
  3.094     0.7667E-3
  3.095     0.7625E-3
  3.096     0.7583E-3
  3.097     0.7542E-3
  3.098     0.7500E-3
  3.099     0.7460E-3
  3.100     0.7419E-3
  3.101     0.7379E-3
  3.102     0.7339E-3
  3.103     0.7299E-3
  3.104     0.7260E-3
  3.105     0.7221E-3
  3.106     0.7182E-3
  3.107     0.7144E-3
  3.108     0.7106E-3
  3.109     0.7068E-3
  3.110     0.7031E-3
  3.111     0.6994E-3
  3.112     0.6957E-3
  3.113     0.6920E-3
  3.114     0.6884E-3
  3.115     0.6848E-3
  3.116     0.6812E-3
  3.117     0.6777E-3
  3.118     0.6742E-3
  3.119     0.6707E-3
  3.120     0.6672E-3
  3.121     0.6638E-3
  3.122     0.6604E-3
  3.123     0.6570E-3
  3.124     0.6537E-3
  3.125     0.6503E-3
  3.126     0.6470E-3
  3.127     0.6438E-3
  3.128     0.6405E-3
  3.129     0.6373E-3
  3.130     0.6341E-3
  3.131     0.6309E-3
  3.132     0.6277E-3
  3.133     0.6246E-3
  3.134     0.6215E-3
  3.135     0.6184E-3
  3.136     0.6154E-3
  3.137     0.6123E-3
  3.138     0.6093E-3
  3.139     0.6063E-3
  3.140     0.6033E-3
  3.141     0.6004E-3
  3.142     0.5974E-3
  3.143     0.5945E-3
  3.144     0.5916E-3
  3.145     0.5888E-3
  3.146     0.5859E-3
  3.147     0.5831E-3
  3.148     0.5803E-3
  3.149     0.5775E-3
  3.150     0.5747E-3
  3.151     0.5720E-3
  3.152     0.5693E-3
  3.153     0.5666E-3
  3.154     0.5639E-3
  3.155     0.5612E-3
  3.156     0.5586E-3
  3.157     0.5559E-3
  3.158     0.5533E-3
  3.159     0.5507E-3
  3.160     0.5482E-3
  3.161     0.5456E-3
  3.162     0.5431E-3
  3.163     0.5405E-3
  3.164     0.5380E-3
  3.165     0.5355E-3
  3.166     0.5331E-3
  3.167     0.5306E-3
  3.168     0.5282E-3
  3.169     0.5258E-3
  3.170     0.5234E-3
  3.171     0.5210E-3
  3.172     0.5186E-3
  3.173     0.5163E-3
  3.174     0.5139E-3
  3.175     0.5116E-3
  3.176     0.5093E-3
  3.177     0.5070E-3
  3.178     0.5047E-3
  3.179     0.5025E-3
  3.180     0.5002E-3
  3.181     0.4980E-3
  3.182     0.4958E-3
  3.183     0.4936E-3
  3.184     0.4914E-3
  3.185     0.4892E-3
  3.186     0.4871E-3
  3.187     0.4849E-3
  3.188     0.4828E-3
  3.189     0.4807E-3
  3.190     0.4786E-3
  3.191     0.4765E-3
  3.192     0.4744E-3
  3.193     0.4724E-3
  3.194     0.4703E-3
  3.195     0.4683E-3
  3.196     0.4663E-3
  3.197     0.4643E-3
  3.198     0.4623E-3
  3.199     0.4603E-3
  3.200     0.4583E-3
  3.201     0.4564E-3
  3.202     0.4544E-3
  3.203     0.4525E-3
  3.204     0.4506E-3
  3.205     0.4487E-3
  3.206     0.4468E-3
  3.207     0.4449E-3
  3.208     0.4430E-3
  3.209     0.4412E-3
  3.210     0.4393E-3
  3.211     0.4375E-3
  3.212     0.4357E-3
  3.213     0.4338E-3
  3.214     0.4320E-3
  3.215     0.4302E-3
  3.216     0.4285E-3
  3.217     0.4267E-3
  3.218     0.4249E-3
  3.219     0.4232E-3
  3.220     0.4215E-3
  3.221     0.4197E-3
  3.222     0.4180E-3
  3.223     0.4163E-3
  3.224     0.4146E-3
  3.225     0.4129E-3
  3.226     0.4113E-3
  3.227     0.4096E-3
  3.228     0.4080E-3
  3.229     0.4063E-3
  3.230     0.4047E-3
  3.231     0.4031E-3
  3.232     0.4014E-3
# 
# 06/20/2019 at 00:18 YPP @ br018.pvt.bridges.psc.edu [start]
# 06/20/2019 at 00:19                                 [end]
#  
# Timing   [Min/Max/Average]: 02s/02s/02s
#
# .-Input file : amp.in
# | excitons                     # [R] Excitons
# | amplitude                    # [R] Amplitude
# | BoseTemp=  0.02585     eV    # Bosonic Temperature
# | States= "1 - 20"             # Index of the BS state(s)
# | #DipWeight                   #  Weight the contribution to the exciton WFs with the dipoles
# | Degen_Step=0.1000E-4   eV    # Maximum energy separation of two degenerate states
