#                                                           
#   __   __     _        __  __       ____      U  ___  u   
#   \ \ / / U  /"\  U u |" \/ "| u U | __") u    \/"_ \/    
#    \ V /   \/ _ \/   \| |\/| |/   \|  _ \/     | | | |    
#   U_|"|_u  / ___ \    | |  | |     | |_) | .-,_| |_| |    
#     |_|   /_/   \_\   |_|  |_|     |____/   \_)-\___/     
# .-,//|(_   \\    >>  <<,-,,-.     _|| \\_        \\       
#  \_) (__) (__)  (__)  (./  \.)   (__) (__)      (__)      
#                                                           
#                                                           
#              GPL Version 4.1.4 Revision 76                
#                        MPI Build                          
#                http://www.yambo-code.org                  
#
# BSK|Identifier              :9599
#    |Dimension               :5098
#    |Bands                   :524 - 624
#    |Exchange           [res]: yes
#    |Correlation        [res]: no
#    |Kernel`s coupling       : no
#    |Exchange           [cpl]: no
#    |Correlation        [cpl]: no
#    |W interaction is bare   : no
#    |ALDA kernel in R-space  : no
#    |RL vectors    [exchange]:55207
#    |E/h energy range    [ev]:-1.000000 - -1.000000
#    |Coupling range     [o/o]: 100.0000 -  100.0000
#
# Electron-Hole pairs that contributes to Excitonic State 2 more than 5%
#
#  E    [eV]  Amplitude
#  
    1.5292     0.0024
    1.5317     0.0025
    1.5341     0.0025
    1.5366     0.0025
    1.5391     0.0025
    1.5415     0.0026
    1.5440     0.0026
    1.5465     0.0026
    1.5489     0.0026
    1.5514     0.0027
    1.5538     0.0027
    1.5563     0.0027
    1.5588     0.0027
    1.5612     0.0028
    1.5637     0.0028
    1.5662     0.0028
    1.5686     0.0029
    1.5711     0.0029
    1.5735     0.0029
    1.5760     0.0030
    1.5785     0.0030
    1.5809     0.0030
    1.5834     0.0031
    1.5859     0.0031
    1.5883     0.0031
    1.5908     0.0032
    1.5933     0.0032
    1.5957     0.0032
    1.5982     0.0033
    1.6006     0.0033
    1.6031     0.0033
    1.6056     0.0034
    1.6080     0.0034
    1.6105     0.0035
    1.6130     0.0035
    1.6154     0.0035
    1.6179     0.0036
    1.6203     0.0036
    1.6228     0.0037
    1.6253     0.0037
    1.6277     0.0038
    1.6302     0.0038
    1.6327     0.0039
    1.6351     0.0039
    1.6376     0.0039
    1.6401     0.0040
    1.6425     0.0040
    1.6450     0.0041
    1.6474     0.0042
    1.6499     0.0042
    1.6524     0.0043
    1.6548     0.0043
    1.6573     0.0044
    1.6598     0.0044
    1.6622     0.0045
    1.6647     0.0046
    1.6671     0.0046
    1.6696     0.0047
    1.6721     0.0047
    1.6745     0.0048
    1.6770     0.0049
    1.6795     0.0049
    1.6819     0.0050
    1.6844     0.0051
    1.6869     0.0052
    1.6893     0.0052
    1.6918     0.0053
    1.6942     0.0054
    1.6967     0.0055
    1.6992     0.0055
    1.7016     0.0056
    1.7041     0.0057
    1.7066     0.0058
    1.7090     0.0059
    1.7115     0.0060
    1.7140     0.0061
    1.7164     0.0062
    1.7189     0.0063
    1.7213     0.0064
    1.7238     0.0065
    1.7263     0.0066
    1.7287     0.0067
    1.7312     0.0068
    1.7337     0.0069
    1.7361     0.0070
    1.7386     0.0071
    1.7410     0.0073
    1.7435     0.0074
    1.7460     0.0075
    1.7484     0.0076
    1.7509     0.0078
    1.7534     0.0079
    1.7558     0.0081
    1.7583     0.0082
    1.7608     0.0084
    1.7632     0.0085
    1.7657     0.0087
    1.7681     0.0088
    1.7706     0.0090
    1.7731     0.0092
    1.7755     0.0093
    1.7780     0.0095
    1.7805     0.0097
    1.7829     0.0099
   1.78538    0.01011
   1.78785    0.01032
   1.79031    0.01053
   1.79277    0.01075
   1.79523    0.01097
   1.79770    0.01120
   1.80016    0.01144
   1.80262    0.01169
   1.80509    0.01194
   1.80755    0.01221
   1.81001    0.01248
   1.81248    0.01276
   1.81494    0.01305
   1.81740    0.01335
   1.81987    0.01367
   1.82233    0.01399
   1.82479    0.01432
   1.82726    0.01467
   1.82972    0.01503
   1.83218    0.01540
   1.83465    0.01578
   1.83711    0.01619
   1.83957    0.01660
   1.84204    0.01703
   1.84450    0.01748
   1.84696    0.01795
   1.84942    0.01844
   1.85189    0.01894
   1.85435    0.01947
   1.85681    0.02002
   1.85928    0.02059
   1.86174    0.02119
   1.86420    0.02181
   1.86667    0.02246
   1.86913    0.02314
   1.87159    0.02385
   1.87406    0.02460
   1.87652    0.02537
   1.87898    0.02619
   1.88145    0.02705
   1.88391    0.02795
   1.88637    0.02889
   1.88884    0.02988
   1.89130    0.03092
   1.89376    0.03202
   1.89623    0.03318
   1.89869    0.03440
   1.90115    0.03569
   1.90361    0.03705
   1.90608    0.03849
   1.90854    0.04001
   1.91100    0.04163
   1.91347    0.04334
   1.91593    0.04516
   1.91839    0.04709
   1.92086    0.04915
   1.92332    0.05134
   1.92578    0.05368
   1.92825    0.05619
   1.93071    0.05886
   1.93317    0.06173
   1.93564    0.06481
   1.93810    0.06812
   1.94056    0.07168
   1.94303    0.07552
   1.94549    0.07967
   1.94795    0.08416
   1.95042    0.08903
   1.95288    0.09432
  1.955342   0.100074
  1.957805   0.106350
  1.960268   0.113208
  1.962731   0.120720
  1.965194   0.128967
  1.967657   0.138041
  1.970121   0.148050
  1.972584   0.159114
  1.975047   0.171377
  1.977510   0.185003
  1.979973   0.200176
  1.982437   0.217116
  1.984900   0.236067
  1.987363   0.257313
  1.989826   0.281171
  1.992289   0.307995
  1.994753   0.338179
  1.997216   0.372128
  1.999679   0.410263
  2.002142   0.452963
  2.004605   0.500523
  2.007068   0.553062
  2.009531   0.610376
  2.011995   0.671800
  2.014458   0.735969
  2.016921   0.800662
  2.019384   0.862686
  2.021847   0.917953
  2.024311   0.961922
  2.026774   0.990302
  2.029237   1.000000
  2.031700   0.989897
  2.034163   0.961156
  2.036627   0.916911
  2.039090   0.861459
  2.041553   0.799341
  2.044016   0.734629
  2.046479   0.670493
  2.048942   0.609149
  2.051405   0.551929
  2.053869   0.499492
  2.056332   0.452034
  2.058795   0.409429
  2.061258   0.371387
  2.063722   0.337518
  2.066185   0.307411
  2.068648   0.280652
  2.071111   0.256850
  2.073574   0.235656
  2.076037   0.216749
  2.078501   0.199849
  2.080964   0.184710
  2.083427   0.171115
  2.085890   0.158878
  2.088353   0.147836
  2.090816   0.137849
  2.093280   0.128793
  2.095743   0.120563
  2.098206   0.113065
  2.100669   0.106219
   2.10313    0.09996
   2.10560    0.09421
   2.10806    0.08893
   2.11052    0.08407
   2.11299    0.07959
   2.11545    0.07545
   2.11791    0.07161
   2.12037    0.06806
   2.12284    0.06475
   2.12530    0.06168
   2.12776    0.05881
   2.13023    0.05614
   2.13269    0.05364
   2.13515    0.05130
   2.13762    0.04911
   2.14008    0.04706
   2.14254    0.04513
   2.14501    0.04331
   2.14747    0.04160
   2.14993    0.03999
   2.15240    0.03847
   2.15486    0.03703
   2.15732    0.03567
   2.15979    0.03438
   2.16225    0.03317
   2.16471    0.03201
   2.16718    0.03091
   2.16964    0.02987
   2.17210    0.02888
   2.17456    0.02794
   2.17703    0.02704
   2.17949    0.02618
   2.18195    0.02537
   2.18442    0.02459
   2.18688    0.02385
   2.18934    0.02314
   2.19181    0.02246
   2.19427    0.02181
   2.19673    0.02119
   2.19920    0.02059
   2.20166    0.02002
   2.20412    0.01947
   2.20659    0.01894
   2.20905    0.01844
   2.21151    0.01795
   2.21398    0.01749
   2.21644    0.01704
   2.21890    0.01661
   2.22136    0.01619
   2.22383    0.01579
   2.22629    0.01541
   2.22875    0.01504
   2.23122    0.01468
   2.23368    0.01433
   2.23614    0.01400
   2.23861    0.01368
   2.24107    0.01336
   2.24353    0.01306
   2.24600    0.01277
   2.24846    0.01249
   2.25092    0.01222
   2.25339    0.01196
   2.25585    0.01170
   2.25831    0.01146
   2.26078    0.01122
   2.26324    0.01099
   2.26570    0.01076
   2.26817    0.01054
   2.27063    0.01033
   2.27309    0.01013
    2.2756     0.0099
    2.2780     0.0097
    2.2805     0.0095
    2.2829     0.0094
    2.2854     0.0092
    2.2879     0.0090
    2.2903     0.0089
    2.2928     0.0087
    2.2953     0.0085
    2.2977     0.0084
    2.3002     0.0082
    2.3026     0.0081
    2.3051     0.0079
    2.3076     0.0078
    2.3100     0.0077
    2.3125     0.0075
    2.3150     0.0074
    2.3174     0.0073
    2.3199     0.0072
    2.3224     0.0070
    2.3248     0.0069
    2.3273     0.0068
    2.3297     0.0067
    2.3322     0.0066
    2.3347     0.0065
    2.3371     0.0064
    2.3396     0.0063
    2.3421     0.0062
    2.3445     0.0061
    2.3470     0.0060
    2.3495     0.0059
    2.3519     0.0058
    2.3544     0.0057
    2.3568     0.0057
    2.3593     0.0056
    2.3618     0.0055
    2.3642     0.0054
    2.3667     0.0053
    2.3692     0.0053
    2.3716     0.0052
    2.3741     0.0051
    2.3765     0.0050
    2.3790     0.0050
    2.3815     0.0049
    2.3839     0.0048
    2.3864     0.0048
    2.3889     0.0047
    2.3913     0.0047
    2.3938     0.0046
    2.3963     0.0045
    2.3987     0.0045
    2.4012     0.0044
    2.4036     0.0044
    2.4061     0.0043
    2.4086     0.0042
    2.4110     0.0042
    2.4135     0.0041
    2.4160     0.0041
    2.4184     0.0040
    2.4209     0.0040
    2.4233     0.0039
    2.4258     0.0039
    2.4283     0.0038
    2.4307     0.0038
    2.4332     0.0038
    2.4357     0.0037
    2.4381     0.0037
    2.4406     0.0036
    2.4431     0.0036
    2.4455     0.0035
    2.4480     0.0035
    2.4504     0.0035
    2.4529     0.0034
    2.4554     0.0034
    2.4578     0.0034
    2.4603     0.0033
    2.4628     0.0033
    2.4652     0.0032
    2.4677     0.0032
    2.4701     0.0032
    2.4726     0.0031
    2.4751     0.0031
    2.4775     0.0031
    2.4800     0.0030
    2.4825     0.0030
    2.4849     0.0030
    2.4874     0.0030
    2.4899     0.0029
    2.4923     0.0029
    2.4948     0.0029
    2.4972     0.0028
    2.4997     0.0028
    2.5022     0.0028
    2.5046     0.0028
    2.5071     0.0027
    2.5096     0.0027
    2.5120     0.0027
    2.5145     0.0027
    2.5169     0.0026
    2.5194     0.0026
    2.5219     0.0026
    2.5243     0.0026
    2.5268     0.0025
  2.529     0.2512E-2
  2.532     0.2489E-2
  2.534     0.2468E-2
  2.537     0.2446E-2
  2.539     0.2425E-2
  2.542     0.2404E-2
  2.544     0.2384E-2
  2.547     0.2364E-2
  2.549     0.2344E-2
  2.551     0.2325E-2
  2.554     0.2305E-2
  2.556     0.2287E-2
  2.559     0.2268E-2
  2.561     0.2250E-2
  2.564     0.2233E-2
  2.566     0.2215E-2
  2.569     0.2198E-2
  2.571     0.2181E-2
  2.574     0.2165E-2
  2.576     0.2148E-2
  2.579     0.2133E-2
  2.581     0.2117E-2
  2.583     0.2102E-2
  2.586     0.2087E-2
  2.588     0.2072E-2
  2.591     0.2058E-2
  2.593     0.2044E-2
  2.596     0.2030E-2
  2.598     0.2016E-2
  2.601     0.2003E-2
  2.603     0.1990E-2
  2.606     0.1977E-2
  2.608     0.1965E-2
  2.611     0.1953E-2
  2.613     0.1941E-2
  2.615     0.1930E-2
  2.618     0.1919E-2
  2.620     0.1908E-2
  2.623     0.1897E-2
  2.625     0.1887E-2
  2.628     0.1877E-2
  2.630     0.1867E-2
  2.633     0.1858E-2
  2.635     0.1849E-2
  2.638     0.1840E-2
  2.640     0.1832E-2
  2.643     0.1824E-2
  2.645     0.1816E-2
  2.647     0.1808E-2
  2.650     0.1801E-2
  2.652     0.1795E-2
  2.655     0.1788E-2
  2.657     0.1783E-2
  2.660     0.1777E-2
  2.662     0.1772E-2
  2.665     0.1767E-2
  2.667     0.1763E-2
  2.670     0.1759E-2
  2.672     0.1755E-2
  2.675     0.1752E-2
  2.677     0.1750E-2
  2.680     0.1748E-2
  2.682     0.1746E-2
  2.684     0.1745E-2
  2.687     0.1745E-2
  2.689     0.1745E-2
  2.692     0.1746E-2
  2.694     0.1748E-2
  2.697     0.1750E-2
  2.699     0.1753E-2
  2.702     0.1757E-2
  2.704     0.1761E-2
  2.707     0.1766E-2
  2.709     0.1773E-2
  2.712     0.1780E-2
  2.714     0.1788E-2
  2.716     0.1798E-2
  2.719     0.1808E-2
  2.721     0.1820E-2
  2.724     0.1833E-2
  2.726     0.1847E-2
  2.729     0.1864E-2
  2.731     0.1881E-2
  2.734     0.1901E-2
  2.736     0.1922E-2
  2.739     0.1946E-2
  2.741     0.1972E-2
  2.744     0.2000E-2
  2.746     0.2031E-2
  2.748     0.2065E-2
  2.751     0.2102E-2
  2.753     0.2143E-2
  2.756     0.2188E-2
  2.758     0.2237E-2
  2.761     0.2290E-2
  2.763     0.2349E-2
  2.766     0.2414E-2
  2.768     0.2485E-2
  2.771     0.2564E-2
  2.773     0.2650E-2
  2.776     0.2746E-2
    2.7780     0.0029
    2.7805     0.0030
    2.7830     0.0031
    2.7854     0.0032
    2.7879     0.0034
    2.7904     0.0036
    2.7928     0.0038
    2.7953     0.0040
    2.7977     0.0043
    2.8002     0.0045
    2.8027     0.0049
    2.8051     0.0052
    2.8076     0.0056
    2.8101     0.0061
    2.8125     0.0066
    2.8150     0.0072
    2.8175     0.0078
    2.8199     0.0085
    2.8224     0.0093
   2.82484    0.01015
   2.82731    0.01102
   2.82977    0.01188
   2.83223    0.01271
   2.83470    0.01343
   2.83716    0.01400
   2.83962    0.01435
   2.84209    0.01444
   2.84455    0.01426
   2.84701    0.01384
   2.84948    0.01322
   2.85194    0.01245
   2.85440    0.01160
   2.85687    0.01072
    2.8593     0.0098
    2.8618     0.0090
    2.8643     0.0082
    2.8667     0.0075
    2.8692     0.0069
    2.8716     0.0063
    2.8741     0.0058
    2.8766     0.0054
    2.8790     0.0050
    2.8815     0.0046
    2.8840     0.0043
    2.8864     0.0040
    2.8889     0.0037
    2.8913     0.0035
    2.8938     0.0033
    2.8963     0.0031
    2.8987     0.0029
  2.901     0.2797E-2
  2.904     0.2659E-2
  2.906     0.2534E-2
  2.909     0.2420E-2
  2.911     0.2316E-2
  2.914     0.2220E-2
  2.916     0.2132E-2
  2.918     0.2052E-2
  2.921     0.1977E-2
  2.923     0.1908E-2
  2.926     0.1844E-2
  2.928     0.1785E-2
  2.931     0.1730E-2
  2.933     0.1678E-2
  2.936     0.1630E-2
  2.938     0.1585E-2
  2.941     0.1543E-2
  2.943     0.1504E-2
  2.946     0.1466E-2
  2.948     0.1431E-2
  2.950     0.1399E-2
  2.953     0.1367E-2
  2.955     0.1338E-2
  2.958     0.1310E-2
  2.960     0.1284E-2
  2.963     0.1259E-2
  2.965     0.1235E-2
  2.968     0.1212E-2
  2.970     0.1191E-2
  2.973     0.1170E-2
  2.975     0.1150E-2
  2.978     0.1132E-2
  2.980     0.1114E-2
  2.982     0.1096E-2
  2.985     0.1080E-2
  2.987     0.1064E-2
  2.990     0.1049E-2
  2.992     0.1035E-2
  2.995     0.1021E-2
  2.997     0.1007E-2
  3.000     0.9941E-3
  3.002     0.9816E-3
  3.005     0.9696E-3
  3.007     0.9579E-3
  3.010     0.9467E-3
  3.012     0.9359E-3
  3.015     0.9254E-3
  3.017     0.9152E-3
  3.019     0.9054E-3
  3.022     0.8959E-3
  3.024     0.8867E-3
  3.027     0.8777E-3
  3.029     0.8691E-3
  3.032     0.8606E-3
  3.034     0.8525E-3
  3.037     0.8445E-3
  3.039     0.8368E-3
  3.042     0.8293E-3
  3.044     0.8220E-3
  3.047     0.8149E-3
  3.049     0.8080E-3
  3.051     0.8013E-3
  3.054     0.7947E-3
  3.056     0.7884E-3
  3.059     0.7821E-3
  3.061     0.7761E-3
  3.064     0.7701E-3
  3.066     0.7644E-3
  3.069     0.7587E-3
  3.071     0.7532E-3
  3.074     0.7479E-3
  3.076     0.7426E-3
  3.079     0.7375E-3
  3.081     0.7325E-3
  3.083     0.7276E-3
  3.086     0.7229E-3
  3.088     0.7182E-3
  3.091     0.7136E-3
  3.093     0.7092E-3
  3.096     0.7048E-3
  3.098     0.7006E-3
  3.101     0.6964E-3
  3.103     0.6923E-3
  3.106     0.6883E-3
  3.108     0.6844E-3
  3.111     0.6806E-3
  3.113     0.6769E-3
  3.115     0.6733E-3
  3.118     0.6697E-3
  3.120     0.6662E-3
  3.123     0.6628E-3
  3.125     0.6595E-3
  3.128     0.6562E-3
  3.130     0.6530E-3
  3.133     0.6499E-3
  3.135     0.6469E-3
  3.138     0.6439E-3
  3.140     0.6410E-3
  3.143     0.6382E-3
  3.145     0.6354E-3
  3.148     0.6327E-3
  3.150     0.6301E-3
  3.152     0.6275E-3
  3.155     0.6250E-3
  3.157     0.6226E-3
  3.160     0.6202E-3
  3.162     0.6179E-3
  3.165     0.6156E-3
  3.167     0.6135E-3
  3.170     0.6113E-3
  3.172     0.6093E-3
  3.175     0.6073E-3
  3.177     0.6053E-3
  3.180     0.6035E-3
  3.182     0.6016E-3
  3.184     0.5999E-3
  3.187     0.5982E-3
  3.189     0.5966E-3
  3.192     0.5950E-3
  3.194     0.5935E-3
  3.197     0.5921E-3
  3.199     0.5907E-3
  3.202     0.5894E-3
  3.204     0.5882E-3
  3.207     0.5870E-3
  3.209     0.5859E-3
  3.212     0.5848E-3
  3.214     0.5839E-3
  3.216     0.5830E-3
  3.219     0.5821E-3
  3.221     0.5814E-3
  3.224     0.5807E-3
  3.226     0.5801E-3
  3.229     0.5795E-3
  3.231     0.5791E-3
  3.234     0.5787E-3
  3.236     0.5784E-3
  3.239     0.5781E-3
  3.241     0.5780E-3
  3.244     0.5780E-3
  3.246     0.5780E-3
  3.249     0.5781E-3
  3.251     0.5783E-3
  3.253     0.5787E-3
  3.256     0.5791E-3
  3.258     0.5796E-3
  3.261     0.5802E-3
  3.263     0.5809E-3
  3.266     0.5818E-3
  3.268     0.5827E-3
  3.271     0.5838E-3
  3.273     0.5850E-3
  3.276     0.5863E-3
  3.278     0.5878E-3
  3.281     0.5894E-3
  3.283     0.5911E-3
  3.285     0.5930E-3
  3.288     0.5950E-3
  3.290     0.5972E-3
  3.293     0.5996E-3
  3.295     0.6021E-3
  3.298     0.6048E-3
  3.300     0.6078E-3
  3.303     0.6109E-3
  3.305     0.6142E-3
  3.308     0.6177E-3
  3.310     0.6215E-3
  3.313     0.6255E-3
  3.315     0.6297E-3
  3.317     0.6343E-3
  3.320     0.6391E-3
  3.322     0.6441E-3
  3.325     0.6496E-3
  3.327     0.6553E-3
  3.330     0.6613E-3
  3.332     0.6678E-3
  3.335     0.6746E-3
  3.337     0.6818E-3
  3.340     0.6895E-3
  3.342     0.6976E-3
  3.345     0.7062E-3
  3.347     0.7153E-3
  3.350     0.7250E-3
  3.352     0.7353E-3
  3.354     0.7461E-3
  3.357     0.7577E-3
  3.359     0.7700E-3
  3.362     0.7830E-3
  3.364     0.7968E-3
  3.367     0.8116E-3
  3.369     0.8273E-3
  3.372     0.8440E-3
  3.374     0.8618E-3
  3.377     0.8807E-3
  3.379     0.9010E-3
  3.382     0.9226E-3
  3.384     0.9458E-3
  3.386     0.9705E-3
  3.389     0.9971E-3
  3.391     0.1026E-2
  3.394     0.1056E-2
  3.396     0.1089E-2
  3.399     0.1124E-2
  3.401     0.1163E-2
  3.404     0.1204E-2
  3.406     0.1248E-2
  3.409     0.1296E-2
  3.411     0.1349E-2
  3.414     0.1406E-2
  3.416     0.1467E-2
  3.418     0.1535E-2
  3.421     0.1608E-2
  3.423     0.1689E-2
  3.426     0.1777E-2
  3.428     0.1875E-2
  3.431     0.1982E-2
  3.433     0.2100E-2
  3.436     0.2231E-2
  3.438     0.2376E-2
  3.441     0.2538E-2
  3.443     0.2717E-2
  3.446     0.2918E-2
  3.448     0.3144E-2
  3.450     0.3396E-2
    3.4530     0.0037
    3.4554     0.0040
    3.4579     0.0044
    3.4603     0.0048
    3.4628     0.0052
    3.4653     0.0057
    3.4677     0.0063
    3.4702     0.0069
    3.4727     0.0076
    3.4751     0.0083
    3.4776     0.0091
    3.4800     0.0099
   3.48251    0.01062
   3.48498    0.01128
   3.48744    0.01181
   3.48990    0.01215
   3.49237    0.01227
   3.49483    0.01215
   3.49729    0.01181
   3.49976    0.01128
   3.50222    0.01062
    3.5047     0.0099
    3.5071     0.0091
    3.5096     0.0083
    3.5121     0.0076
    3.5145     0.0069
    3.5170     0.0063
    3.5195     0.0057
    3.5219     0.0052
    3.5244     0.0047
    3.5268     0.0043
    3.5293     0.0040
    3.5318     0.0037
  3.534     0.3364E-2
  3.537     0.3109E-2
  3.539     0.2881E-2
  3.542     0.2677E-2
  3.544     0.2495E-2
  3.547     0.2331E-2
  3.549     0.2183E-2
  3.551     0.2050E-2
  3.554     0.1929E-2
  3.556     0.1819E-2
  3.559     0.1720E-2
  3.561     0.1629E-2
  3.564     0.1546E-2
  3.566     0.1470E-2
  3.569     0.1400E-2
  3.571     0.1336E-2
  3.574     0.1277E-2
  3.576     0.1222E-2
  3.579     0.1171E-2
  3.581     0.1125E-2
  3.584     0.1081E-2
  3.586     0.1041E-2
  3.588     0.1003E-2
  3.591     0.9676E-3
  3.593     0.9347E-3
  3.596     0.9039E-3
  3.598     0.8750E-3
  3.601     0.8478E-3
  3.603     0.8224E-3
  3.606     0.7984E-3
  3.608     0.7757E-3
  3.611     0.7544E-3
  3.613     0.7342E-3
  3.616     0.7152E-3
  3.618     0.6971E-3
  3.620     0.6800E-3
  3.623     0.6638E-3
  3.625     0.6483E-3
  3.628     0.6337E-3
  3.630     0.6197E-3
  3.633     0.6064E-3
  3.635     0.5938E-3
  3.638     0.5817E-3
  3.640     0.5701E-3
  3.643     0.5591E-3
  3.645     0.5485E-3
  3.648     0.5384E-3
  3.650     0.5287E-3
  3.652     0.5194E-3
  3.655     0.5105E-3
  3.657     0.5020E-3
  3.660     0.4938E-3
  3.662     0.4858E-3
  3.665     0.4782E-3
  3.667     0.4709E-3
  3.670     0.4639E-3
  3.672     0.4571E-3
  3.675     0.4505E-3
  3.677     0.4442E-3
  3.680     0.4381E-3
  3.682     0.4322E-3
  3.684     0.4265E-3
  3.687     0.4210E-3
  3.689     0.4156E-3
  3.692     0.4105E-3
  3.694     0.4054E-3
  3.697     0.4006E-3
  3.699     0.3959E-3
  3.702     0.3913E-3
  3.704     0.3869E-3
  3.707     0.3826E-3
  3.709     0.3784E-3
  3.712     0.3744E-3
  3.714     0.3704E-3
  3.717     0.3666E-3
  3.719     0.3628E-3
  3.721     0.3592E-3
  3.724     0.3557E-3
  3.726     0.3522E-3
  3.729     0.3489E-3
  3.731     0.3456E-3
  3.734     0.3424E-3
  3.736     0.3393E-3
  3.739     0.3363E-3
  3.741     0.3333E-3
  3.744     0.3304E-3
  3.746     0.3276E-3
  3.749     0.3248E-3
  3.751     0.3221E-3
  3.753     0.3195E-3
  3.756     0.3169E-3
  3.758     0.3144E-3
  3.761     0.3119E-3
  3.763     0.3095E-3
  3.766     0.3071E-3
  3.768     0.3048E-3
  3.771     0.3025E-3
  3.773     0.3003E-3
  3.776     0.2981E-3
  3.778     0.2960E-3
  3.781     0.2939E-3
  3.783     0.2918E-3
  3.785     0.2898E-3
  3.788     0.2878E-3
  3.790     0.2859E-3
  3.793     0.2839E-3
  3.795     0.2821E-3
  3.798     0.2802E-3
  3.800     0.2784E-3
  3.803     0.2766E-3
  3.805     0.2749E-3
  3.808     0.2732E-3
  3.810     0.2715E-3
  3.813     0.2698E-3
  3.815     0.2682E-3
  3.818     0.2666E-3
  3.820     0.2650E-3
  3.822     0.2634E-3
  3.825     0.2619E-3
  3.827     0.2604E-3
  3.830     0.2589E-3
  3.832     0.2575E-3
  3.835     0.2560E-3
  3.837     0.2546E-3
  3.840     0.2532E-3
  3.842     0.2518E-3
  3.845     0.2505E-3
  3.847     0.2491E-3
  3.850     0.2478E-3
  3.852     0.2465E-3
  3.854     0.2452E-3
  3.857     0.2439E-3
  3.859     0.2427E-3
  3.862     0.2414E-3
  3.864     0.2402E-3
  3.867     0.2390E-3
  3.869     0.2378E-3
  3.872     0.2367E-3
  3.874     0.2355E-3
  3.877     0.2344E-3
  3.879     0.2332E-3
  3.882     0.2321E-3
  3.884     0.2310E-3
  3.886     0.2299E-3
  3.889     0.2289E-3
  3.891     0.2278E-3
  3.894     0.2267E-3
  3.896     0.2257E-3
  3.899     0.2247E-3
  3.901     0.2237E-3
  3.904     0.2227E-3
  3.906     0.2217E-3
  3.909     0.2207E-3
  3.911     0.2197E-3
  3.914     0.2188E-3
  3.916     0.2178E-3
  3.918     0.2169E-3
  3.921     0.2159E-3
  3.923     0.2150E-3
  3.926     0.2141E-3
  3.928     0.2132E-3
  3.931     0.2123E-3
  3.933     0.2114E-3
  3.936     0.2106E-3
  3.938     0.2097E-3
  3.941     0.2088E-3
  3.943     0.2080E-3
  3.946     0.2071E-3
  3.948     0.2063E-3
  3.951     0.2055E-3
  3.953     0.2047E-3
  3.955     0.2039E-3
  3.958     0.2031E-3
  3.960     0.2023E-3
  3.963     0.2015E-3
  3.965     0.2007E-3
  3.968     0.1999E-3
  3.970     0.1992E-3
  3.973     0.1984E-3
  3.975     0.1976E-3
  3.978     0.1969E-3
  3.980     0.1962E-3
  3.983     0.1954E-3
  3.985     0.1947E-3
  3.987     0.1940E-3
  3.990     0.1933E-3
# 
# 06/20/2019 at 00:18 YPP @ br018.pvt.bridges.psc.edu [start]
# 06/20/2019 at 00:19                                 [end]
#  
# Timing   [Min/Max/Average]: 02s/02s/02s
#
# .-Input file : amp.in
# | excitons                     # [R] Excitons
# | amplitude                    # [R] Amplitude
# | BoseTemp=  0.02585     eV    # Bosonic Temperature
# | States= "1 - 20"             # Index of the BS state(s)
# | #DipWeight                   #  Weight the contribution to the exciton WFs with the dipoles
# | Degen_Step=0.1000E-4   eV    # Maximum energy separation of two degenerate states
