#                                                           
#   __   __     _        __  __       ____      U  ___  u   
#   \ \ / / U  /"\  U u |" \/ "| u U | __") u    \/"_ \/    
#    \ V /   \/ _ \/   \| |\/| |/   \|  _ \/     | | | |    
#   U_|"|_u  / ___ \    | |  | |     | |_) | .-,_| |_| |    
#     |_|   /_/   \_\   |_|  |_|     |____/   \_)-\___/     
# .-,//|(_   \\    >>  <<,-,,-.     _|| \\_        \\       
#  \_) (__) (__)  (__)  (./  \.)   (__) (__)      (__)      
#                                                           
#                                                           
#              GPL Version 4.1.4 Revision 76                
#                        MPI Build                          
#                http://www.yambo-code.org                  
#
# BSK|Identifier              :9599
#    |Dimension               :5098
#    |Bands                   :524 - 624
#    |Exchange           [res]: yes
#    |Correlation        [res]: no
#    |Kernel`s coupling       : no
#    |Exchange           [cpl]: no
#    |Correlation        [cpl]: no
#    |W interaction is bare   : no
#    |ALDA kernel in R-space  : no
#    |RL vectors    [exchange]:55207
#    |E/h energy range    [ev]:-1.000000 - -1.000000
#    |Coupling range     [o/o]: 100.0000 -  100.0000
#
# Electron-Hole pairs that contributes to Excitonic State 5 more than 5%
#
#  E    [eV]  Amplitude
#  
  2.342     0.3998E-3
  2.343     0.4014E-3
  2.344     0.4031E-3
  2.345     0.4047E-3
  2.346     0.4063E-3
  2.347     0.4080E-3
  2.348     0.4096E-3
  2.349     0.4113E-3
  2.350     0.4129E-3
  2.351     0.4146E-3
  2.352     0.4163E-3
  2.353     0.4180E-3
  2.354     0.4197E-3
  2.355     0.4215E-3
  2.356     0.4232E-3
  2.357     0.4249E-3
  2.358     0.4267E-3
  2.359     0.4285E-3
  2.360     0.4302E-3
  2.361     0.4320E-3
  2.362     0.4338E-3
  2.363     0.4357E-3
  2.364     0.4375E-3
  2.365     0.4393E-3
  2.366     0.4412E-3
  2.367     0.4430E-3
  2.368     0.4449E-3
  2.369     0.4468E-3
  2.370     0.4487E-3
  2.371     0.4506E-3
  2.372     0.4525E-3
  2.373     0.4544E-3
  2.374     0.4564E-3
  2.375     0.4583E-3
  2.376     0.4603E-3
  2.377     0.4623E-3
  2.378     0.4643E-3
  2.379     0.4663E-3
  2.380     0.4683E-3
  2.381     0.4703E-3
  2.382     0.4724E-3
  2.383     0.4744E-3
  2.384     0.4765E-3
  2.385     0.4786E-3
  2.386     0.4807E-3
  2.387     0.4828E-3
  2.388     0.4849E-3
  2.389     0.4871E-3
  2.390     0.4892E-3
  2.391     0.4914E-3
  2.392     0.4936E-3
  2.393     0.4958E-3
  2.394     0.4980E-3
  2.395     0.5002E-3
  2.396     0.5025E-3
  2.397     0.5047E-3
  2.398     0.5070E-3
  2.399     0.5093E-3
  2.400     0.5116E-3
  2.401     0.5139E-3
  2.402     0.5163E-3
  2.403     0.5186E-3
  2.404     0.5210E-3
  2.405     0.5234E-3
  2.406     0.5258E-3
  2.407     0.5282E-3
  2.408     0.5306E-3
  2.409     0.5331E-3
  2.410     0.5355E-3
  2.411     0.5380E-3
  2.412     0.5405E-3
  2.413     0.5431E-3
  2.414     0.5456E-3
  2.415     0.5482E-3
  2.416     0.5507E-3
  2.417     0.5533E-3
  2.418     0.5559E-3
  2.419     0.5586E-3
  2.420     0.5612E-3
  2.421     0.5639E-3
  2.422     0.5666E-3
  2.423     0.5693E-3
  2.424     0.5720E-3
  2.425     0.5747E-3
  2.426     0.5775E-3
  2.427     0.5803E-3
  2.428     0.5831E-3
  2.429     0.5859E-3
  2.430     0.5888E-3
  2.431     0.5916E-3
  2.432     0.5945E-3
  2.433     0.5974E-3
  2.434     0.6004E-3
  2.435     0.6033E-3
  2.436     0.6063E-3
  2.437     0.6093E-3
  2.438     0.6123E-3
  2.439     0.6154E-3
  2.440     0.6184E-3
  2.441     0.6215E-3
  2.442     0.6246E-3
  2.443     0.6277E-3
  2.444     0.6309E-3
  2.445     0.6341E-3
  2.446     0.6373E-3
  2.447     0.6405E-3
  2.448     0.6438E-3
  2.449     0.6470E-3
  2.450     0.6503E-3
  2.451     0.6537E-3
  2.452     0.6570E-3
  2.453     0.6604E-3
  2.454     0.6638E-3
  2.455     0.6672E-3
  2.456     0.6707E-3
  2.457     0.6742E-3
  2.458     0.6777E-3
  2.459     0.6812E-3
  2.460     0.6848E-3
  2.461     0.6884E-3
  2.462     0.6920E-3
  2.463     0.6957E-3
  2.464     0.6994E-3
  2.465     0.7031E-3
  2.466     0.7068E-3
  2.467     0.7106E-3
  2.468     0.7144E-3
  2.469     0.7182E-3
  2.470     0.7221E-3
  2.471     0.7260E-3
  2.472     0.7299E-3
  2.473     0.7339E-3
  2.474     0.7379E-3
  2.475     0.7419E-3
  2.476     0.7460E-3
  2.477     0.7500E-3
  2.478     0.7542E-3
  2.479     0.7583E-3
  2.480     0.7625E-3
  2.481     0.7667E-3
  2.482     0.7710E-3
  2.483     0.7753E-3
  2.484     0.7796E-3
  2.485     0.7840E-3
  2.486     0.7884E-3
  2.487     0.7929E-3
  2.488     0.7973E-3
  2.489     0.8019E-3
  2.490     0.8064E-3
  2.491     0.8110E-3
  2.492     0.8157E-3
  2.493     0.8203E-3
  2.494     0.8251E-3
  2.495     0.8298E-3
  2.496     0.8346E-3
  2.497     0.8395E-3
  2.498     0.8443E-3
  2.499     0.8493E-3
  2.500     0.8542E-3
  2.501     0.8592E-3
  2.502     0.8643E-3
  2.503     0.8694E-3
  2.504     0.8746E-3
  2.505     0.8797E-3
  2.506     0.8850E-3
  2.507     0.8903E-3
  2.508     0.8956E-3
  2.509     0.9010E-3
  2.510     0.9064E-3
  2.511     0.9119E-3
  2.512     0.9174E-3
  2.513     0.9230E-3
  2.514     0.9286E-3
  2.515     0.9343E-3
  2.516     0.9401E-3
  2.517     0.9459E-3
  2.518     0.9517E-3
  2.519     0.9576E-3
  2.520     0.9635E-3
  2.521     0.9695E-3
  2.522     0.9756E-3
  2.523     0.9817E-3
  2.524     0.9879E-3
  2.525     0.9941E-3
  2.526     0.1000E-2
  2.527     0.1007E-2
  2.528     0.1013E-2
  2.529     0.1020E-2
  2.530     0.1026E-2
  2.531     0.1033E-2
  2.532     0.1040E-2
  2.533     0.1046E-2
  2.534     0.1053E-2
  2.535     0.1060E-2
  2.536     0.1067E-2
  2.537     0.1074E-2
  2.538     0.1081E-2
  2.539     0.1088E-2
  2.540     0.1095E-2
  2.541     0.1103E-2
  2.542     0.1110E-2
  2.543     0.1117E-2
  2.544     0.1125E-2
  2.545     0.1132E-2
  2.546     0.1140E-2
  2.547     0.1148E-2
  2.548     0.1156E-2
  2.549     0.1163E-2
  2.550     0.1171E-2
  2.551     0.1180E-2
  2.552     0.1188E-2
  2.553     0.1196E-2
  2.554     0.1204E-2
  2.555     0.1213E-2
  2.556     0.1221E-2
  2.557     0.1230E-2
  2.558     0.1238E-2
  2.559     0.1247E-2
  2.560     0.1256E-2
  2.561     0.1265E-2
  2.562     0.1274E-2
  2.563     0.1283E-2
  2.564     0.1292E-2
  2.565     0.1302E-2
  2.566     0.1311E-2
  2.567     0.1321E-2
  2.568     0.1330E-2
  2.569     0.1340E-2
  2.570     0.1350E-2
  2.571     0.1360E-2
  2.572     0.1370E-2
  2.573     0.1380E-2
  2.574     0.1390E-2
  2.575     0.1401E-2
  2.576     0.1411E-2
  2.577     0.1422E-2
  2.578     0.1433E-2
  2.579     0.1444E-2
  2.580     0.1455E-2
  2.581     0.1466E-2
  2.582     0.1477E-2
  2.583     0.1489E-2
  2.584     0.1500E-2
  2.585     0.1512E-2
  2.586     0.1524E-2
  2.587     0.1536E-2
  2.588     0.1548E-2
  2.589     0.1560E-2
  2.590     0.1572E-2
  2.591     0.1585E-2
  2.592     0.1597E-2
  2.593     0.1610E-2
  2.594     0.1623E-2
  2.595     0.1636E-2
  2.596     0.1650E-2
  2.597     0.1663E-2
  2.598     0.1677E-2
  2.599     0.1691E-2
  2.600     0.1705E-2
  2.601     0.1719E-2
  2.602     0.1733E-2
  2.603     0.1748E-2
  2.604     0.1762E-2
  2.605     0.1777E-2
  2.606     0.1792E-2
  2.607     0.1808E-2
  2.608     0.1823E-2
  2.609     0.1839E-2
  2.610     0.1854E-2
  2.611     0.1871E-2
  2.612     0.1887E-2
  2.613     0.1903E-2
  2.614     0.1920E-2
  2.615     0.1937E-2
  2.616     0.1954E-2
  2.617     0.1971E-2
  2.618     0.1989E-2
  2.619     0.2007E-2
  2.620     0.2025E-2
  2.621     0.2043E-2
  2.622     0.2062E-2
  2.623     0.2081E-2
  2.624     0.2100E-2
  2.625     0.2119E-2
  2.626     0.2139E-2
  2.627     0.2159E-2
  2.628     0.2179E-2
  2.629     0.2199E-2
  2.630     0.2220E-2
  2.631     0.2241E-2
  2.632     0.2262E-2
  2.633     0.2284E-2
  2.634     0.2306E-2
  2.635     0.2328E-2
  2.636     0.2351E-2
  2.637     0.2374E-2
  2.638     0.2397E-2
  2.639     0.2421E-2
  2.640     0.2445E-2
  2.641     0.2469E-2
  2.642     0.2494E-2
  2.643     0.2519E-2
  2.644     0.2544E-2
  2.645     0.2570E-2
  2.646     0.2596E-2
  2.647     0.2623E-2
    2.6478     0.0026
    2.6488     0.0027
    2.6498     0.0027
    2.6508     0.0027
    2.6518     0.0028
    2.6528     0.0028
    2.6538     0.0028
    2.6548     0.0029
    2.6558     0.0029
    2.6568     0.0029
    2.6578     0.0029
    2.6588     0.0030
    2.6598     0.0030
    2.6608     0.0030
    2.6618     0.0031
    2.6628     0.0031
    2.6638     0.0031
    2.6648     0.0032
    2.6658     0.0032
    2.6668     0.0033
    2.6678     0.0033
    2.6688     0.0033
    2.6698     0.0034
    2.6708     0.0034
    2.6718     0.0034
    2.6728     0.0035
    2.6738     0.0035
    2.6748     0.0036
    2.6758     0.0036
    2.6768     0.0037
    2.6778     0.0037
    2.6788     0.0037
    2.6798     0.0038
    2.6808     0.0038
    2.6818     0.0039
    2.6828     0.0039
    2.6838     0.0040
    2.6848     0.0040
    2.6858     0.0041
    2.6868     0.0041
    2.6878     0.0042
    2.6888     0.0043
    2.6898     0.0043
    2.6908     0.0044
    2.6918     0.0044
    2.6928     0.0045
    2.6938     0.0045
    2.6948     0.0046
    2.6958     0.0047
    2.6968     0.0047
    2.6978     0.0048
    2.6988     0.0049
    2.6998     0.0049
    2.7008     0.0050
    2.7018     0.0051
    2.7028     0.0051
    2.7038     0.0052
    2.7048     0.0053
    2.7058     0.0054
    2.7068     0.0055
    2.7078     0.0055
    2.7088     0.0056
    2.7098     0.0057
    2.7108     0.0058
    2.7118     0.0059
    2.7128     0.0060
    2.7138     0.0061
    2.7148     0.0062
    2.7158     0.0063
    2.7168     0.0064
    2.7178     0.0065
    2.7188     0.0066
    2.7198     0.0067
    2.7208     0.0068
    2.7218     0.0069
    2.7228     0.0070
    2.7238     0.0071
    2.7248     0.0073
    2.7258     0.0074
    2.7268     0.0075
    2.7278     0.0076
    2.7288     0.0078
    2.7298     0.0079
    2.7308     0.0081
    2.7318     0.0082
    2.7328     0.0083
    2.7338     0.0085
    2.7348     0.0087
    2.7358     0.0088
    2.7368     0.0090
    2.7378     0.0092
    2.7388     0.0093
    2.7398     0.0095
    2.7408     0.0097
    2.7418     0.0099
   2.74275    0.01010
   2.74375    0.01031
   2.74475    0.01052
   2.74575    0.01073
   2.74675    0.01096
   2.74775    0.01119
   2.74875    0.01143
   2.74975    0.01168
   2.75075    0.01193
   2.75175    0.01220
   2.75275    0.01247
   2.75375    0.01275
   2.75475    0.01304
   2.75575    0.01334
   2.75675    0.01365
   2.75775    0.01397
   2.75875    0.01431
   2.75975    0.01465
   2.76075    0.01501
   2.76175    0.01538
   2.76275    0.01577
   2.76375    0.01617
   2.76475    0.01659
   2.76575    0.01702
   2.76675    0.01747
   2.76775    0.01793
   2.76875    0.01842
   2.76975    0.01893
   2.77075    0.01945
   2.77175    0.02000
   2.77275    0.02057
   2.77375    0.02117
   2.77475    0.02179
   2.77575    0.02244
   2.77675    0.02312
   2.77775    0.02383
   2.77875    0.02458
   2.77975    0.02536
   2.78075    0.02617
   2.78175    0.02703
   2.78275    0.02793
   2.78375    0.02887
   2.78475    0.02986
   2.78575    0.03090
   2.78675    0.03200
   2.78775    0.03316
   2.78875    0.03438
   2.78975    0.03566
   2.79075    0.03702
   2.79175    0.03846
   2.79275    0.03998
   2.79375    0.04160
   2.79475    0.04331
   2.79575    0.04513
   2.79675    0.04706
   2.79775    0.04912
   2.79875    0.05131
   2.79975    0.05365
   2.80075    0.05615
   2.80175    0.05882
   2.80275    0.06169
   2.80375    0.06477
   2.80475    0.06807
   2.80575    0.07163
   2.80675    0.07547
   2.80775    0.07962
   2.80875    0.08410
   2.80975    0.08897
   2.81075    0.09425
  2.811754   0.100000
  2.812753   0.106270
  2.813754   0.113123
  2.814754   0.120627
  2.815753   0.128865
  2.816754   0.137932
  2.817754   0.147929
  2.818753   0.158984
  2.819753   0.171233
  2.820753   0.184842
  2.821754   0.200001
  2.822753   0.216919
  2.823754   0.235851
  2.824754   0.257069
  2.825753   0.280897
  2.826754   0.307693
  2.827753   0.337836
  2.828753   0.371750
  2.829753   0.409836
  2.830754   0.452494
  2.831753   0.500001
  2.832753   0.552483
  2.833754   0.609760
  2.834754   0.671140
  2.835754   0.735300
  2.836753   0.800001
  2.837753   0.862065
  2.838753   0.917434
  2.839753   0.961537
  2.840754   0.990101
  2.841753   1.000000
  2.842753   0.990101
  2.843754   0.961537
  2.844754   0.917434
  2.845753   0.862065
  2.846753   0.800001
  2.847754   0.735287
  2.848753   0.671140
  2.849753   0.609760
  2.850754   0.552483
  2.851753   0.500001
  2.852754   0.452484
  2.853754   0.409836
  2.854753   0.371750
  2.855753   0.337836
  2.856753   0.307693
  2.857754   0.280897
  2.858753   0.257069
  2.859753   0.235851
  2.860754   0.216919
  2.861753   0.200001
  2.862754   0.184842
  2.863754   0.171233
  2.864753   0.158981
  2.865753   0.147929
  2.866753   0.137932
  2.867754   0.128865
  2.868753   0.120627
  2.869754   0.113122
  2.870754   0.106270
  2.871753   0.100000
   2.87275    0.09425
   2.87375    0.08897
   2.87475    0.08410
   2.87575    0.07962
   2.87675    0.07547
   2.87775    0.07163
   2.87875    0.06807
   2.87975    0.06477
   2.88075    0.06169
   2.88175    0.05882
   2.88275    0.05615
   2.88375    0.05365
   2.88475    0.05131
   2.88575    0.04912
   2.88675    0.04706
   2.88775    0.04513
   2.88875    0.04331
   2.88975    0.04160
   2.89075    0.03998
   2.89175    0.03846
   2.89275    0.03702
   2.89375    0.03566
   2.89475    0.03438
   2.89575    0.03316
   2.89675    0.03200
   2.89775    0.03090
   2.89875    0.02986
   2.89975    0.02887
   2.90075    0.02793
   2.90175    0.02703
   2.90275    0.02617
   2.90375    0.02535
   2.90475    0.02458
   2.90575    0.02383
   2.90675    0.02312
   2.90775    0.02244
   2.90875    0.02179
   2.90975    0.02117
   2.91075    0.02057
   2.91175    0.02000
   2.91275    0.01945
   2.91375    0.01893
   2.91475    0.01842
   2.91575    0.01793
   2.91675    0.01747
   2.91775    0.01702
   2.91875    0.01659
   2.91975    0.01617
   2.92075    0.01577
   2.92175    0.01538
   2.92275    0.01501
   2.92375    0.01465
   2.92475    0.01431
   2.92575    0.01397
   2.92675    0.01365
   2.92775    0.01334
   2.92875    0.01304
   2.92975    0.01275
   2.93075    0.01247
   2.93175    0.01220
   2.93275    0.01193
   2.93375    0.01168
   2.93475    0.01143
   2.93575    0.01119
   2.93675    0.01096
   2.93775    0.01073
   2.93875    0.01052
   2.93975    0.01031
   2.94075    0.01010
    2.9418     0.0099
    2.9428     0.0097
    2.9438     0.0095
    2.9448     0.0093
    2.9458     0.0092
    2.9468     0.0090
    2.9478     0.0088
    2.9488     0.0087
    2.9498     0.0085
    2.9508     0.0083
    2.9518     0.0082
    2.9528     0.0081
    2.9538     0.0079
    2.9548     0.0078
    2.9558     0.0076
    2.9568     0.0075
    2.9578     0.0074
    2.9588     0.0073
    2.9598     0.0071
    2.9608     0.0070
    2.9618     0.0069
    2.9628     0.0068
    2.9638     0.0067
    2.9648     0.0066
    2.9658     0.0065
    2.9668     0.0064
    2.9678     0.0063
    2.9688     0.0062
    2.9698     0.0061
    2.9708     0.0060
    2.9718     0.0059
    2.9728     0.0058
    2.9738     0.0057
    2.9748     0.0056
    2.9758     0.0055
    2.9768     0.0055
    2.9778     0.0054
    2.9788     0.0053
    2.9798     0.0052
    2.9808     0.0051
    2.9818     0.0051
    2.9828     0.0050
    2.9838     0.0049
    2.9848     0.0049
    2.9858     0.0048
    2.9868     0.0047
    2.9878     0.0047
    2.9888     0.0046
    2.9898     0.0045
    2.9908     0.0045
    2.9918     0.0044
    2.9928     0.0044
    2.9938     0.0043
    2.9948     0.0043
    2.9958     0.0042
    2.9968     0.0041
    2.9978     0.0041
    2.9988     0.0040
    2.9998     0.0040
    3.0008     0.0039
    3.0018     0.0039
    3.0028     0.0038
    3.0038     0.0038
    3.0048     0.0037
    3.0058     0.0037
    3.0068     0.0037
    3.0078     0.0036
    3.0088     0.0036
    3.0098     0.0035
    3.0108     0.0035
    3.0118     0.0034
    3.0128     0.0034
    3.0138     0.0034
    3.0148     0.0033
    3.0158     0.0033
    3.0168     0.0033
    3.0178     0.0032
    3.0188     0.0032
    3.0198     0.0031
    3.0208     0.0031
    3.0218     0.0031
    3.0228     0.0030
  3.024     0.3010E-2
  3.025     0.2977E-2
  3.026     0.2945E-2
  3.027     0.2913E-2
  3.028     0.2882E-2
  3.029     0.2852E-2
  3.030     0.2821E-2
  3.031     0.2792E-2
  3.032     0.2762E-2
  3.033     0.2734E-2
  3.034     0.2705E-2
  3.035     0.2677E-2
  3.036     0.2650E-2
  3.037     0.2623E-2
  3.038     0.2596E-2
  3.039     0.2570E-2
  3.040     0.2544E-2
  3.041     0.2519E-2
  3.042     0.2494E-2
  3.043     0.2469E-2
  3.044     0.2445E-2
  3.045     0.2421E-2
  3.046     0.2397E-2
  3.047     0.2374E-2
  3.048     0.2351E-2
  3.049     0.2328E-2
  3.050     0.2306E-2
  3.051     0.2284E-2
  3.052     0.2262E-2
  3.053     0.2241E-2
  3.054     0.2220E-2
  3.055     0.2199E-2
  3.056     0.2179E-2
  3.057     0.2159E-2
  3.058     0.2139E-2
  3.059     0.2119E-2
  3.060     0.2100E-2
  3.061     0.2081E-2
  3.062     0.2062E-2
  3.063     0.2043E-2
  3.064     0.2025E-2
  3.065     0.2007E-2
  3.066     0.1989E-2
  3.067     0.1971E-2
  3.068     0.1954E-2
  3.069     0.1937E-2
  3.070     0.1920E-2
  3.071     0.1903E-2
  3.072     0.1887E-2
  3.073     0.1871E-2
  3.074     0.1854E-2
  3.075     0.1839E-2
  3.076     0.1823E-2
  3.077     0.1808E-2
  3.078     0.1792E-2
  3.079     0.1777E-2
  3.080     0.1762E-2
  3.081     0.1748E-2
  3.082     0.1733E-2
  3.083     0.1719E-2
  3.084     0.1705E-2
  3.085     0.1691E-2
  3.086     0.1677E-2
  3.087     0.1663E-2
  3.088     0.1650E-2
  3.089     0.1636E-2
  3.090     0.1623E-2
  3.091     0.1610E-2
  3.092     0.1597E-2
  3.093     0.1585E-2
  3.094     0.1572E-2
  3.095     0.1560E-2
  3.096     0.1548E-2
  3.097     0.1536E-2
  3.098     0.1524E-2
  3.099     0.1512E-2
  3.100     0.1500E-2
  3.101     0.1489E-2
  3.102     0.1477E-2
  3.103     0.1466E-2
  3.104     0.1455E-2
  3.105     0.1444E-2
  3.106     0.1433E-2
  3.107     0.1422E-2
  3.108     0.1411E-2
  3.109     0.1401E-2
  3.110     0.1390E-2
  3.111     0.1380E-2
  3.112     0.1370E-2
  3.113     0.1360E-2
  3.114     0.1350E-2
  3.115     0.1340E-2
  3.116     0.1330E-2
  3.117     0.1321E-2
  3.118     0.1311E-2
  3.119     0.1302E-2
  3.120     0.1292E-2
  3.121     0.1283E-2
  3.122     0.1274E-2
  3.123     0.1265E-2
  3.124     0.1256E-2
  3.125     0.1247E-2
  3.126     0.1238E-2
  3.127     0.1230E-2
  3.128     0.1221E-2
  3.129     0.1213E-2
  3.130     0.1204E-2
  3.131     0.1196E-2
  3.132     0.1188E-2
  3.133     0.1180E-2
  3.134     0.1171E-2
  3.135     0.1163E-2
  3.136     0.1156E-2
  3.137     0.1148E-2
  3.138     0.1140E-2
  3.139     0.1132E-2
  3.140     0.1125E-2
  3.141     0.1117E-2
  3.142     0.1110E-2
  3.143     0.1103E-2
  3.144     0.1095E-2
  3.145     0.1088E-2
  3.146     0.1081E-2
  3.147     0.1074E-2
  3.148     0.1067E-2
  3.149     0.1060E-2
  3.150     0.1053E-2
  3.151     0.1046E-2
  3.152     0.1040E-2
  3.153     0.1033E-2
  3.154     0.1026E-2
  3.155     0.1020E-2
  3.156     0.1013E-2
  3.157     0.1007E-2
  3.158     0.1000E-2
  3.159     0.9941E-3
  3.160     0.9879E-3
  3.161     0.9817E-3
  3.162     0.9756E-3
  3.163     0.9695E-3
  3.164     0.9635E-3
  3.165     0.9576E-3
  3.166     0.9517E-3
  3.167     0.9459E-3
  3.168     0.9401E-3
  3.169     0.9343E-3
  3.170     0.9286E-3
  3.171     0.9230E-3
  3.172     0.9174E-3
  3.173     0.9119E-3
  3.174     0.9064E-3
  3.175     0.9010E-3
  3.176     0.8956E-3
  3.177     0.8903E-3
  3.178     0.8850E-3
  3.179     0.8797E-3
  3.180     0.8746E-3
  3.181     0.8694E-3
  3.182     0.8643E-3
  3.183     0.8592E-3
  3.184     0.8542E-3
  3.185     0.8493E-3
  3.186     0.8443E-3
  3.187     0.8395E-3
  3.188     0.8346E-3
  3.189     0.8298E-3
  3.190     0.8251E-3
  3.191     0.8203E-3
  3.192     0.8157E-3
  3.193     0.8110E-3
  3.194     0.8064E-3
  3.195     0.8019E-3
  3.196     0.7973E-3
  3.197     0.7929E-3
  3.198     0.7884E-3
  3.199     0.7840E-3
  3.200     0.7796E-3
  3.201     0.7753E-3
  3.202     0.7710E-3
  3.203     0.7667E-3
  3.204     0.7625E-3
  3.205     0.7583E-3
  3.206     0.7542E-3
  3.207     0.7500E-3
  3.208     0.7460E-3
  3.209     0.7419E-3
  3.210     0.7379E-3
  3.211     0.7339E-3
  3.212     0.7299E-3
  3.213     0.7260E-3
  3.214     0.7221E-3
  3.215     0.7182E-3
  3.216     0.7144E-3
  3.217     0.7106E-3
  3.218     0.7068E-3
  3.219     0.7031E-3
  3.220     0.6994E-3
  3.221     0.6957E-3
  3.222     0.6920E-3
  3.223     0.6884E-3
  3.224     0.6848E-3
  3.225     0.6812E-3
  3.226     0.6777E-3
  3.227     0.6742E-3
  3.228     0.6707E-3
  3.229     0.6672E-3
  3.230     0.6638E-3
  3.231     0.6604E-3
  3.232     0.6570E-3
  3.233     0.6537E-3
  3.234     0.6503E-3
  3.235     0.6470E-3
  3.236     0.6438E-3
  3.237     0.6405E-3
  3.238     0.6373E-3
  3.239     0.6341E-3
  3.240     0.6309E-3
  3.241     0.6277E-3
  3.242     0.6246E-3
  3.243     0.6215E-3
  3.244     0.6184E-3
  3.245     0.6154E-3
  3.246     0.6123E-3
  3.247     0.6093E-3
  3.248     0.6063E-3
  3.249     0.6033E-3
  3.250     0.6004E-3
  3.251     0.5974E-3
  3.252     0.5945E-3
  3.253     0.5916E-3
  3.254     0.5888E-3
  3.255     0.5859E-3
  3.256     0.5831E-3
  3.257     0.5803E-3
  3.258     0.5775E-3
  3.259     0.5747E-3
  3.260     0.5720E-3
  3.261     0.5693E-3
  3.262     0.5666E-3
  3.263     0.5639E-3
  3.264     0.5612E-3
  3.265     0.5586E-3
  3.266     0.5559E-3
  3.267     0.5533E-3
  3.268     0.5507E-3
  3.269     0.5482E-3
  3.270     0.5456E-3
  3.271     0.5431E-3
  3.272     0.5405E-3
  3.273     0.5380E-3
  3.274     0.5355E-3
  3.275     0.5331E-3
  3.276     0.5306E-3
  3.277     0.5282E-3
  3.278     0.5258E-3
  3.279     0.5234E-3
  3.280     0.5210E-3
  3.281     0.5186E-3
  3.282     0.5163E-3
  3.283     0.5139E-3
  3.284     0.5116E-3
  3.285     0.5093E-3
  3.286     0.5070E-3
  3.287     0.5047E-3
  3.288     0.5025E-3
  3.289     0.5002E-3
  3.290     0.4980E-3
  3.291     0.4958E-3
  3.292     0.4936E-3
  3.293     0.4914E-3
  3.294     0.4892E-3
  3.295     0.4871E-3
  3.296     0.4849E-3
  3.297     0.4828E-3
  3.298     0.4807E-3
  3.299     0.4786E-3
  3.300     0.4765E-3
  3.301     0.4744E-3
  3.302     0.4724E-3
  3.303     0.4703E-3
  3.304     0.4683E-3
  3.305     0.4663E-3
  3.306     0.4643E-3
  3.307     0.4623E-3
  3.308     0.4603E-3
  3.309     0.4583E-3
  3.310     0.4564E-3
  3.311     0.4544E-3
  3.312     0.4525E-3
  3.313     0.4506E-3
  3.314     0.4487E-3
  3.315     0.4468E-3
  3.316     0.4449E-3
  3.317     0.4430E-3
  3.318     0.4412E-3
  3.319     0.4393E-3
  3.320     0.4375E-3
  3.321     0.4357E-3
  3.322     0.4338E-3
  3.323     0.4320E-3
  3.324     0.4302E-3
  3.325     0.4285E-3
  3.326     0.4267E-3
  3.327     0.4249E-3
  3.328     0.4232E-3
  3.329     0.4215E-3
  3.330     0.4197E-3
  3.331     0.4180E-3
  3.332     0.4163E-3
  3.333     0.4146E-3
  3.334     0.4129E-3
  3.335     0.4113E-3
  3.336     0.4096E-3
  3.337     0.4080E-3
  3.338     0.4063E-3
  3.339     0.4047E-3
  3.340     0.4031E-3
  3.341     0.4014E-3
# 
# 06/20/2019 at 00:18 YPP @ br018.pvt.bridges.psc.edu [start]
# 06/20/2019 at 00:19                                 [end]
#  
# Timing   [Min/Max/Average]: 02s/02s/02s
#
# .-Input file : amp.in
# | excitons                     # [R] Excitons
# | amplitude                    # [R] Amplitude
# | BoseTemp=  0.02585     eV    # Bosonic Temperature
# | States= "1 - 20"             # Index of the BS state(s)
# | #DipWeight                   #  Weight the contribution to the exciton WFs with the dipoles
# | Degen_Step=0.1000E-4   eV    # Maximum energy separation of two degenerate states
