#  __      __   ______   __       __  _______    ______     
# |  \    /  \ /      \ |  \     /  \|       \  /      \    
#  \$$\  /  $$|  $$$$$$\| $$\   /  $$| $$$$$$$\|  $$$$$$\   
#   \$$\/  $$ | $$__| $$| $$$\ /  $$$| $$__/ $$| $$  | $$   
#    \$$  $$  | $$    $$| $$$$\  $$$$| $$    $$| $$  | $$   
#     \$$$$   | $$$$$$$$| $$\$$ $$ $$| $$$$$$$\| $$  | $$   
#     | $$    | $$  | $$| $$ \$$$| $$| $$__/ $$| $$__/ $$   
#     | $$    | $$  | $$| $$  \$ | $$| $$    $$ \$$    $$   
#      \$$     \$$   \$$ \$$      \$$ \$$$$$$$   \$$$$$$    
#                                                           
#              GPL Version 4.1.4 Revision 76                
#                        MPI Build                          
#                http://www.yambo-code.org                  
#
# BSK|Identifier              :7677
#    |Dimension               :3278
#    |Bands                   :534 - 614
#    |Exchange           [res]: yes
#    |Correlation        [res]: no
#    |Kernel`s coupling       : no
#    |Exchange           [cpl]: no
#    |Correlation        [cpl]: no
#    |W interaction is bare   : no
#    |ALDA kernel in R-space  : no
#    |RL vectors    [exchange]:55207
#    |E/h energy range    [ev]:-1.000000 - -1.000000
#    |Coupling range     [o/o]: 100.0000 -  100.0000
#
# Electron-Hole pairs that contributes to Excitonic State 7 more than 5%
#
#  E    [eV]  Amplitude
#  
  2.342     0.3740E-3
  2.343     0.3755E-3
  2.344     0.3769E-3
  2.345     0.3784E-3
  2.346     0.3799E-3
  2.347     0.3813E-3
  2.348     0.3828E-3
  2.349     0.3843E-3
  2.350     0.3858E-3
  2.351     0.3873E-3
  2.352     0.3889E-3
  2.353     0.3904E-3
  2.354     0.3919E-3
  2.355     0.3935E-3
  2.356     0.3950E-3
  2.357     0.3966E-3
  2.358     0.3982E-3
  2.359     0.3998E-3
  2.361     0.4014E-3
  2.362     0.4030E-3
  2.363     0.4046E-3
  2.364     0.4062E-3
  2.365     0.4078E-3
  2.366     0.4095E-3
  2.367     0.4111E-3
  2.368     0.4128E-3
  2.369     0.4145E-3
  2.370     0.4162E-3
  2.371     0.4179E-3
  2.372     0.4196E-3
  2.373     0.4213E-3
  2.374     0.4230E-3
  2.375     0.4247E-3
  2.376     0.4265E-3
  2.377     0.4282E-3
  2.378     0.4300E-3
  2.379     0.4318E-3
  2.380     0.4336E-3
  2.381     0.4354E-3
  2.382     0.4372E-3
  2.383     0.4390E-3
  2.384     0.4409E-3
  2.385     0.4427E-3
  2.387     0.4446E-3
  2.388     0.4464E-3
  2.389     0.4483E-3
  2.390     0.4502E-3
  2.391     0.4521E-3
  2.392     0.4541E-3
  2.393     0.4560E-3
  2.394     0.4579E-3
  2.395     0.4599E-3
  2.396     0.4619E-3
  2.397     0.4638E-3
  2.398     0.4658E-3
  2.399     0.4678E-3
  2.400     0.4699E-3
  2.401     0.4719E-3
  2.402     0.4739E-3
  2.403     0.4760E-3
  2.404     0.4781E-3
  2.405     0.4802E-3
  2.406     0.4823E-3
  2.407     0.4844E-3
  2.408     0.4865E-3
  2.409     0.4886E-3
  2.410     0.4908E-3
  2.412     0.4930E-3
  2.413     0.4952E-3
  2.414     0.4974E-3
  2.415     0.4996E-3
  2.416     0.5018E-3
  2.417     0.5040E-3
  2.418     0.5063E-3
  2.419     0.5086E-3
  2.420     0.5109E-3
  2.421     0.5132E-3
  2.422     0.5155E-3
  2.423     0.5178E-3
  2.424     0.5202E-3
  2.425     0.5226E-3
  2.426     0.5249E-3
  2.427     0.5273E-3
  2.428     0.5298E-3
  2.429     0.5322E-3
  2.430     0.5347E-3
  2.431     0.5371E-3
  2.432     0.5396E-3
  2.433     0.5421E-3
  2.434     0.5446E-3
  2.435     0.5472E-3
  2.437     0.5497E-3
  2.438     0.5523E-3
  2.439     0.5549E-3
  2.440     0.5575E-3
  2.441     0.5601E-3
  2.442     0.5628E-3
  2.443     0.5654E-3
  2.444     0.5681E-3
  2.445     0.5708E-3
  2.446     0.5736E-3
  2.447     0.5763E-3
  2.448     0.5791E-3
  2.449     0.5818E-3
  2.450     0.5847E-3
  2.451     0.5875E-3
  2.452     0.5903E-3
  2.453     0.5932E-3
  2.454     0.5961E-3
  2.455     0.5990E-3
  2.456     0.6019E-3
  2.457     0.6049E-3
  2.458     0.6078E-3
  2.459     0.6108E-3
  2.460     0.6138E-3
  2.462     0.6169E-3
  2.463     0.6199E-3
  2.464     0.6230E-3
  2.465     0.6261E-3
  2.466     0.6293E-3
  2.467     0.6324E-3
  2.468     0.6356E-3
  2.469     0.6388E-3
  2.470     0.6420E-3
  2.471     0.6453E-3
  2.472     0.6485E-3
  2.473     0.6518E-3
  2.474     0.6552E-3
  2.475     0.6585E-3
  2.476     0.6619E-3
  2.477     0.6653E-3
  2.478     0.6687E-3
  2.479     0.6722E-3
  2.480     0.6756E-3
  2.481     0.6792E-3
  2.482     0.6827E-3
  2.483     0.6863E-3
  2.484     0.6898E-3
  2.485     0.6935E-3
  2.487     0.6971E-3
  2.488     0.7008E-3
  2.489     0.7045E-3
  2.490     0.7082E-3
  2.491     0.7120E-3
  2.492     0.7158E-3
  2.493     0.7196E-3
  2.494     0.7235E-3
  2.495     0.7274E-3
  2.496     0.7313E-3
  2.497     0.7352E-3
  2.498     0.7392E-3
  2.499     0.7432E-3
  2.500     0.7473E-3
  2.501     0.7514E-3
  2.502     0.7555E-3
  2.503     0.7596E-3
  2.504     0.7638E-3
  2.505     0.7680E-3
  2.506     0.7723E-3
  2.507     0.7766E-3
  2.508     0.7809E-3
  2.509     0.7853E-3
  2.510     0.7897E-3
  2.512     0.7941E-3
  2.513     0.7986E-3
  2.514     0.8031E-3
  2.515     0.8076E-3
  2.516     0.8122E-3
  2.517     0.8168E-3
  2.518     0.8215E-3
  2.519     0.8262E-3
  2.520     0.8310E-3
  2.521     0.8357E-3
  2.522     0.8406E-3
  2.523     0.8454E-3
  2.524     0.8504E-3
  2.525     0.8553E-3
  2.526     0.8603E-3
  2.527     0.8654E-3
  2.528     0.8704E-3
  2.529     0.8756E-3
  2.530     0.8808E-3
  2.531     0.8860E-3
  2.532     0.8913E-3
  2.533     0.8966E-3
  2.534     0.9019E-3
  2.535     0.9074E-3
  2.537     0.9128E-3
  2.538     0.9183E-3
  2.539     0.9239E-3
  2.540     0.9295E-3
  2.541     0.9352E-3
  2.542     0.9409E-3
  2.543     0.9467E-3
  2.544     0.9525E-3
  2.545     0.9584E-3
  2.546     0.9643E-3
  2.547     0.9703E-3
  2.548     0.9763E-3
  2.549     0.9824E-3
  2.550     0.9886E-3
  2.551     0.9948E-3
  2.552     0.1001E-2
  2.553     0.1007E-2
  2.554     0.1014E-2
  2.555     0.1020E-2
  2.556     0.1027E-2
  2.557     0.1033E-2
  2.558     0.1040E-2
  2.559     0.1047E-2
  2.560     0.1053E-2
  2.562     0.1060E-2
  2.563     0.1067E-2
  2.564     0.1074E-2
  2.565     0.1081E-2
  2.566     0.1088E-2
  2.567     0.1096E-2
  2.568     0.1103E-2
  2.569     0.1110E-2
  2.570     0.1117E-2
  2.571     0.1125E-2
  2.572     0.1132E-2
  2.573     0.1140E-2
  2.574     0.1148E-2
  2.575     0.1156E-2
  2.576     0.1163E-2
  2.577     0.1171E-2
  2.578     0.1179E-2
  2.579     0.1188E-2
  2.580     0.1196E-2
  2.581     0.1204E-2
  2.582     0.1212E-2
  2.583     0.1221E-2
  2.584     0.1229E-2
  2.585     0.1238E-2
  2.587     0.1247E-2
  2.588     0.1255E-2
  2.589     0.1264E-2
  2.590     0.1273E-2
  2.591     0.1282E-2
  2.592     0.1292E-2
  2.593     0.1301E-2
  2.594     0.1310E-2
  2.595     0.1320E-2
  2.596     0.1329E-2
  2.597     0.1339E-2
  2.598     0.1349E-2
  2.599     0.1359E-2
  2.600     0.1369E-2
  2.601     0.1379E-2
  2.602     0.1389E-2
  2.603     0.1400E-2
  2.604     0.1410E-2
  2.605     0.1421E-2
  2.606     0.1431E-2
  2.607     0.1442E-2
  2.608     0.1453E-2
  2.609     0.1464E-2
  2.610     0.1475E-2
  2.612     0.1487E-2
  2.613     0.1498E-2
  2.614     0.1510E-2
  2.615     0.1522E-2
  2.616     0.1533E-2
  2.617     0.1546E-2
  2.618     0.1558E-2
  2.619     0.1570E-2
  2.620     0.1582E-2
  2.621     0.1595E-2
  2.622     0.1608E-2
  2.623     0.1621E-2
  2.624     0.1634E-2
  2.625     0.1647E-2
  2.626     0.1660E-2
  2.627     0.1674E-2
  2.628     0.1688E-2
  2.629     0.1701E-2
  2.630     0.1716E-2
  2.631     0.1730E-2
  2.632     0.1744E-2
  2.633     0.1759E-2
  2.634     0.1774E-2
  2.635     0.1788E-2
  2.637     0.1804E-2
  2.638     0.1819E-2
  2.639     0.1835E-2
  2.640     0.1850E-2
  2.641     0.1866E-2
  2.642     0.1882E-2
  2.643     0.1899E-2
  2.644     0.1915E-2
  2.645     0.1932E-2
  2.646     0.1949E-2
  2.647     0.1966E-2
  2.648     0.1984E-2
  2.649     0.2001E-2
  2.650     0.2019E-2
  2.651     0.2038E-2
  2.652     0.2056E-2
  2.653     0.2075E-2
  2.654     0.2094E-2
  2.655     0.2113E-2
  2.656     0.2132E-2
  2.657     0.2152E-2
  2.658     0.2172E-2
  2.659     0.2192E-2
  2.660     0.2213E-2
  2.662     0.2234E-2
  2.663     0.2255E-2
  2.664     0.2276E-2
  2.665     0.2298E-2
  2.666     0.2320E-2
  2.667     0.2343E-2
  2.668     0.2365E-2
  2.669     0.2388E-2
  2.670     0.2412E-2
  2.671     0.2435E-2
  2.672     0.2460E-2
  2.673     0.2484E-2
  2.674     0.2509E-2
  2.675     0.2534E-2
  2.676     0.2560E-2
  2.677     0.2586E-2
  2.678     0.2612E-2
  2.679     0.2639E-2
  2.680     0.2666E-2
    2.6813     0.0027
    2.6823     0.0027
    2.6834     0.0028
    2.6844     0.0028
    2.6855     0.0028
    2.6865     0.0028
    2.6875     0.0029
    2.6886     0.0029
    2.6896     0.0029
    2.6907     0.0030
    2.6917     0.0030
    2.6927     0.0030
    2.6938     0.0031
    2.6948     0.0031
    2.6959     0.0031
    2.6969     0.0032
    2.6980     0.0032
    2.6990     0.0032
    2.7000     0.0033
    2.7011     0.0033
    2.7021     0.0033
    2.7032     0.0034
    2.7042     0.0034
    2.7052     0.0035
    2.7063     0.0035
    2.7073     0.0036
    2.7084     0.0036
    2.7094     0.0036
    2.7105     0.0037
    2.7115     0.0037
    2.7125     0.0038
    2.7136     0.0038
    2.7146     0.0039
    2.7157     0.0039
    2.7167     0.0040
    2.7177     0.0040
    2.7188     0.0041
    2.7198     0.0041
    2.7209     0.0042
    2.7219     0.0042
    2.7230     0.0043
    2.7240     0.0043
    2.7250     0.0044
    2.7261     0.0045
    2.7271     0.0045
    2.7282     0.0046
    2.7292     0.0046
    2.7302     0.0047
    2.7313     0.0048
    2.7323     0.0048
    2.7334     0.0049
    2.7344     0.0050
    2.7354     0.0050
    2.7365     0.0051
    2.7375     0.0052
    2.7386     0.0053
    2.7396     0.0053
    2.7407     0.0054
    2.7417     0.0055
    2.7427     0.0056
    2.7438     0.0057
    2.7448     0.0057
    2.7459     0.0058
    2.7469     0.0059
    2.7479     0.0060
    2.7490     0.0061
    2.7500     0.0062
    2.7511     0.0063
    2.7521     0.0064
    2.7532     0.0065
    2.7542     0.0066
    2.7552     0.0067
    2.7563     0.0068
    2.7573     0.0069
    2.7584     0.0071
    2.7594     0.0072
    2.7604     0.0073
    2.7615     0.0074
    2.7625     0.0076
    2.7636     0.0077
    2.7646     0.0078
    2.7657     0.0080
    2.7667     0.0081
    2.7677     0.0083
    2.7688     0.0084
    2.7698     0.0086
    2.7709     0.0087
    2.7719     0.0089
    2.7729     0.0091
    2.7740     0.0092
    2.7750     0.0094
    2.7761     0.0096
    2.7771     0.0098
    2.7782     0.0100
   2.77919    0.01019
   2.78023    0.01039
   2.78128    0.01061
   2.78232    0.01083
   2.78336    0.01106
   2.78440    0.01130
   2.78544    0.01154
   2.78648    0.01179
   2.78753    0.01205
   2.78857    0.01232
   2.78961    0.01260
   2.79065    0.01289
   2.79169    0.01319
   2.79273    0.01350
   2.79377    0.01382
   2.79482    0.01415
   2.79586    0.01449
   2.79690    0.01485
   2.79794    0.01522
   2.79898    0.01561
   2.80002    0.01601
   2.80107    0.01642
   2.80211    0.01685
   2.80315    0.01730
   2.80419    0.01777
   2.80523    0.01826
   2.80627    0.01877
   2.80731    0.01931
   2.80836    0.01986
   2.80940    0.02044
   2.81044    0.02105
   2.81148    0.02169
   2.81252    0.02236
   2.81356    0.02306
   2.81461    0.02379
   2.81565    0.02457
   2.81669    0.02538
   2.81773    0.02624
   2.81877    0.02715
   2.81981    0.02811
   2.82085    0.02912
   2.82190    0.03019
   2.82294    0.03133
   2.82398    0.03254
   2.82502    0.03383
   2.82606    0.03521
   2.82710    0.03668
   2.82815    0.03825
   2.82919    0.03993
   2.83023    0.04173
   2.83127    0.04366
   2.83231    0.04572
   2.83335    0.04793
   2.83439    0.05027
   2.83544    0.05276
   2.83648    0.05536
   2.83752    0.05807
   2.83856    0.06085
   2.83960    0.06366
   2.84064    0.06648
   2.84169    0.06928
   2.84273    0.07207
   2.84377    0.07487
   2.84481    0.07775
   2.84585    0.08076
   2.84689    0.08398
   2.84793    0.08748
   2.84898    0.09132
   2.85002    0.09558
  2.851059   0.100292
  2.852100   0.105526
  2.853142   0.111336
  2.854183   0.117782
  2.855225   0.124934
  2.856266   0.132867
  2.857308   0.141672
  2.858349   0.151451
  2.859391   0.162327
  2.860432   0.174434
  2.861474   0.187935
  2.862515   0.203016
  2.863557   0.219893
  2.864599   0.238815
  2.865640   0.260057
  2.866681   0.283941
  2.867723   0.310823
  2.868764   0.341091
  2.869806   0.375164
  2.870847   0.413441
  2.871889   0.456309
  2.872931   0.504053
  2.873972   0.556783
  2.875014   0.614262
  2.876055   0.675792
  2.877097   0.739974
  2.878138   0.804546
  2.879180   0.866228
  2.880221   0.920920
  2.881263   0.964066
  2.882304   0.991427
  2.883346   1.000000
  2.884387   0.988787
  2.885429   0.959081
  2.886470   0.914095
  2.887512   0.858165
  2.888554   0.795810
  2.889595   0.731072
  2.890636   0.667064
  2.891678   0.605937
  2.892720   0.548975
  2.893761   0.496831
  2.894803   0.449660
  2.895844   0.407330
  2.896886   0.369531
  2.897927   0.335891
  2.898969   0.305985
  2.900010   0.279403
  2.901052   0.255760
  2.902093   0.234698
  2.903135   0.215912
  2.904176   0.199116
  2.905218   0.184068
  2.906259   0.170552
  2.907301   0.158383
  2.908342   0.147402
  2.909384   0.137468
  2.910426   0.128457
  2.911467   0.120268
  2.912508   0.112806
  2.913550   0.105992
   2.91459    0.09976
   2.91563    0.09404
   2.91667    0.08878
   2.91772    0.08394
   2.91876    0.07947
   2.91980    0.07535
   2.92084    0.07153
   2.92188    0.06798
   2.92292    0.06469
   2.92397    0.06162
   2.92501    0.05877
   2.92605    0.05610
   2.92709    0.05361
   2.92813    0.05128
   2.92917    0.04909
   2.93021    0.04704
   2.93126    0.04512
   2.93230    0.04330
   2.93334    0.04160
   2.93438    0.03999
   2.93542    0.03847
   2.93646    0.03703
   2.93751    0.03568
   2.93855    0.03439
   2.93959    0.03318
   2.94063    0.03202
   2.94167    0.03093
   2.94271    0.02988
   2.94375    0.02889
   2.94480    0.02795
   2.94584    0.02706
   2.94688    0.02620
   2.94792    0.02539
   2.94896    0.02461
   2.95000    0.02387
   2.95104    0.02316
   2.95209    0.02248
   2.95313    0.02183
   2.95417    0.02120
   2.95521    0.02061
   2.95625    0.02004
   2.95729    0.01949
   2.95834    0.01896
   2.95938    0.01846
   2.96042    0.01797
   2.96146    0.01750
   2.96250    0.01706
   2.96354    0.01662
   2.96458    0.01621
   2.96563    0.01581
   2.96667    0.01542
   2.96771    0.01505
   2.96875    0.01469
   2.96979    0.01435
   2.97083    0.01401
   2.97188    0.01369
   2.97292    0.01338
   2.97396    0.01308
   2.97500    0.01279
   2.97604    0.01250
   2.97708    0.01223
   2.97812    0.01197
   2.97917    0.01171
   2.98021    0.01147
   2.98125    0.01123
   2.98229    0.01099
   2.98333    0.01077
   2.98437    0.01055
   2.98542    0.01034
   2.98646    0.01013
    2.9875     0.0099
    2.9885     0.0097
    2.9896     0.0096
    2.9906     0.0094
    2.9917     0.0092
    2.9927     0.0090
    2.9937     0.0089
    2.9948     0.0087
    2.9958     0.0085
    2.9969     0.0084
    2.9979     0.0082
    2.9990     0.0081
    3.0000     0.0079
    3.0010     0.0078
    3.0021     0.0077
    3.0031     0.0075
    3.0042     0.0074
    3.0052     0.0073
    3.0062     0.0072
    3.0073     0.0070
    3.0083     0.0069
    3.0094     0.0068
    3.0104     0.0067
    3.0115     0.0066
    3.0125     0.0065
    3.0135     0.0064
    3.0146     0.0063
    3.0156     0.0062
    3.0167     0.0061
    3.0177     0.0060
    3.0187     0.0059
    3.0198     0.0058
    3.0208     0.0057
    3.0219     0.0056
    3.0229     0.0056
    3.0240     0.0055
    3.0250     0.0054
    3.0260     0.0053
    3.0271     0.0052
    3.0281     0.0052
    3.0292     0.0051
    3.0302     0.0050
    3.0312     0.0050
    3.0323     0.0049
    3.0333     0.0048
    3.0344     0.0048
    3.0354     0.0047
    3.0364     0.0046
    3.0375     0.0046
    3.0385     0.0045
    3.0396     0.0044
    3.0406     0.0044
    3.0417     0.0043
    3.0427     0.0043
    3.0437     0.0042
    3.0448     0.0042
    3.0458     0.0041
    3.0469     0.0041
    3.0479     0.0040
    3.0489     0.0040
    3.0500     0.0039
    3.0510     0.0039
    3.0521     0.0038
    3.0531     0.0038
    3.0542     0.0037
    3.0552     0.0037
    3.0562     0.0036
    3.0573     0.0036
    3.0583     0.0035
    3.0594     0.0035
    3.0604     0.0035
    3.0614     0.0034
    3.0625     0.0034
    3.0635     0.0033
    3.0646     0.0033
    3.0656     0.0033
    3.0667     0.0032
    3.0677     0.0032
    3.0687     0.0032
    3.0698     0.0031
    3.0708     0.0031
  3.072     0.3060E-2
  3.073     0.3027E-2
  3.074     0.2994E-2
  3.075     0.2962E-2
  3.076     0.2930E-2
  3.077     0.2899E-2
  3.078     0.2868E-2
  3.079     0.2838E-2
  3.080     0.2808E-2
  3.081     0.2778E-2
  3.082     0.2750E-2
  3.083     0.2721E-2
  3.084     0.2693E-2
  3.085     0.2665E-2
  3.086     0.2638E-2
  3.087     0.2612E-2
  3.089     0.2585E-2
  3.090     0.2559E-2
  3.091     0.2534E-2
  3.092     0.2509E-2
  3.093     0.2484E-2
  3.094     0.2459E-2
  3.095     0.2435E-2
  3.096     0.2412E-2
  3.097     0.2388E-2
  3.098     0.2365E-2
  3.099     0.2342E-2
  3.100     0.2320E-2
  3.101     0.2298E-2
  3.102     0.2276E-2
  3.103     0.2255E-2
  3.104     0.2234E-2
  3.105     0.2213E-2
  3.106     0.2192E-2
  3.107     0.2172E-2
  3.108     0.2152E-2
  3.109     0.2132E-2
  3.110     0.2113E-2
  3.111     0.2094E-2
  3.112     0.2075E-2
  3.114     0.2056E-2
  3.115     0.2038E-2
  3.116     0.2019E-2
  3.117     0.2001E-2
  3.118     0.1984E-2
  3.119     0.1966E-2
  3.120     0.1949E-2
  3.121     0.1932E-2
  3.122     0.1915E-2
  3.123     0.1899E-2
  3.124     0.1882E-2
  3.125     0.1866E-2
  3.126     0.1850E-2
  3.127     0.1835E-2
  3.128     0.1819E-2
  3.129     0.1804E-2
  3.130     0.1789E-2
  3.131     0.1774E-2
  3.132     0.1759E-2
  3.133     0.1744E-2
  3.134     0.1730E-2
  3.135     0.1716E-2
  3.136     0.1702E-2
  3.137     0.1688E-2
  3.139     0.1674E-2
  3.140     0.1661E-2
  3.141     0.1647E-2
  3.142     0.1634E-2
  3.143     0.1621E-2
  3.144     0.1608E-2
  3.145     0.1595E-2
  3.146     0.1583E-2
  3.147     0.1570E-2
  3.148     0.1558E-2
  3.149     0.1546E-2
  3.150     0.1534E-2
  3.151     0.1522E-2
  3.152     0.1510E-2
  3.153     0.1498E-2
  3.154     0.1487E-2
  3.155     0.1476E-2
  3.156     0.1464E-2
  3.157     0.1453E-2
  3.158     0.1442E-2
  3.159     0.1432E-2
  3.160     0.1421E-2
  3.161     0.1410E-2
  3.162     0.1400E-2
  3.164     0.1389E-2
  3.165     0.1379E-2
  3.166     0.1369E-2
  3.167     0.1359E-2
  3.168     0.1349E-2
  3.169     0.1339E-2
  3.170     0.1330E-2
  3.171     0.1320E-2
  3.172     0.1310E-2
  3.173     0.1301E-2
  3.174     0.1292E-2
  3.175     0.1283E-2
  3.176     0.1274E-2
  3.177     0.1265E-2
  3.178     0.1256E-2
  3.179     0.1247E-2
  3.180     0.1238E-2
  3.181     0.1229E-2
  3.182     0.1221E-2
  3.183     0.1213E-2
  3.184     0.1204E-2
  3.185     0.1196E-2
  3.186     0.1188E-2
  3.187     0.1180E-2
  3.189     0.1172E-2
  3.190     0.1164E-2
  3.191     0.1156E-2
  3.192     0.1148E-2
  3.193     0.1140E-2
  3.194     0.1133E-2
  3.195     0.1125E-2
  3.196     0.1118E-2
  3.197     0.1110E-2
  3.198     0.1103E-2
  3.199     0.1096E-2
  3.200     0.1089E-2
  3.201     0.1081E-2
  3.202     0.1074E-2
  3.203     0.1067E-2
  3.204     0.1060E-2
  3.205     0.1054E-2
  3.206     0.1047E-2
  3.207     0.1040E-2
  3.208     0.1034E-2
  3.209     0.1027E-2
  3.210     0.1020E-2
  3.211     0.1014E-2
  3.212     0.1008E-2
  3.214     0.1001E-2
  3.215     0.9950E-3
  3.216     0.9888E-3
  3.217     0.9826E-3
  3.218     0.9765E-3
  3.219     0.9705E-3
  3.220     0.9645E-3
  3.221     0.9585E-3
  3.222     0.9527E-3
  3.223     0.9468E-3
  3.224     0.9411E-3
  3.225     0.9354E-3
  3.226     0.9297E-3
  3.227     0.9241E-3
  3.228     0.9185E-3
  3.229     0.9130E-3
  3.230     0.9075E-3
  3.231     0.9021E-3
  3.232     0.8967E-3
  3.233     0.8914E-3
  3.234     0.8862E-3
  3.235     0.8809E-3
  3.236     0.8757E-3
  3.237     0.8706E-3
  3.239     0.8655E-3
  3.240     0.8605E-3
  3.241     0.8555E-3
  3.242     0.8505E-3
  3.243     0.8456E-3
  3.244     0.8407E-3
  3.245     0.8359E-3
  3.246     0.8311E-3
  3.247     0.8264E-3
  3.248     0.8217E-3
  3.249     0.8170E-3
  3.250     0.8124E-3
  3.251     0.8078E-3
  3.252     0.8032E-3
  3.253     0.7987E-3
  3.254     0.7943E-3
  3.255     0.7898E-3
  3.256     0.7854E-3
  3.257     0.7811E-3
  3.258     0.7767E-3
  3.259     0.7724E-3
  3.260     0.7682E-3
  3.261     0.7640E-3
  3.262     0.7598E-3
  3.264     0.7556E-3
  3.265     0.7515E-3
  3.266     0.7474E-3
  3.267     0.7434E-3
  3.268     0.7394E-3
  3.269     0.7354E-3
  3.270     0.7314E-3
  3.271     0.7275E-3
  3.272     0.7236E-3
  3.273     0.7198E-3
  3.274     0.7159E-3
  3.275     0.7121E-3
  3.276     0.7084E-3
  3.277     0.7046E-3
  3.278     0.7009E-3
  3.279     0.6973E-3
  3.280     0.6936E-3
  3.281     0.6900E-3
  3.282     0.6864E-3
  3.283     0.6828E-3
  3.284     0.6793E-3
  3.285     0.6758E-3
  3.286     0.6723E-3
  3.287     0.6688E-3
  3.288     0.6654E-3
  3.290     0.6620E-3
  3.291     0.6586E-3
  3.292     0.6553E-3
  3.293     0.6520E-3
  3.294     0.6487E-3
  3.295     0.6454E-3
  3.296     0.6421E-3
  3.297     0.6389E-3
  3.298     0.6357E-3
  3.299     0.6325E-3
  3.300     0.6294E-3
  3.301     0.6262E-3
  3.302     0.6231E-3
  3.303     0.6201E-3
  3.304     0.6170E-3
  3.305     0.6140E-3
  3.306     0.6109E-3
  3.307     0.6079E-3
  3.308     0.6050E-3
  3.309     0.6020E-3
  3.310     0.5991E-3
  3.311     0.5962E-3
  3.312     0.5933E-3
  3.313     0.5904E-3
  3.315     0.5876E-3
  3.316     0.5848E-3
  3.317     0.5820E-3
  3.318     0.5792E-3
  3.319     0.5764E-3
  3.320     0.5737E-3
  3.321     0.5709E-3
  3.322     0.5682E-3
  3.323     0.5656E-3
  3.324     0.5629E-3
  3.325     0.5602E-3
  3.326     0.5576E-3
  3.327     0.5550E-3
  3.328     0.5524E-3
  3.329     0.5498E-3
  3.330     0.5473E-3
  3.331     0.5447E-3
  3.332     0.5422E-3
  3.333     0.5397E-3
  3.334     0.5372E-3
  3.335     0.5348E-3
  3.336     0.5323E-3
  3.337     0.5299E-3
  3.338     0.5274E-3
  3.340     0.5250E-3
  3.341     0.5227E-3
  3.342     0.5203E-3
  3.343     0.5179E-3
  3.344     0.5156E-3
  3.345     0.5133E-3
  3.346     0.5110E-3
  3.347     0.5087E-3
  3.348     0.5064E-3
  3.349     0.5041E-3
  3.350     0.5019E-3
  3.351     0.4997E-3
  3.352     0.4975E-3
  3.353     0.4953E-3
  3.354     0.4931E-3
  3.355     0.4909E-3
  3.356     0.4887E-3
  3.357     0.4866E-3
  3.358     0.4845E-3
  3.359     0.4823E-3
  3.360     0.4802E-3
  3.361     0.4782E-3
  3.362     0.4761E-3
  3.363     0.4740E-3
  3.365     0.4720E-3
  3.366     0.4699E-3
  3.367     0.4679E-3
  3.368     0.4659E-3
  3.369     0.4639E-3
  3.370     0.4619E-3
  3.371     0.4600E-3
  3.372     0.4580E-3
  3.373     0.4561E-3
  3.374     0.4541E-3
  3.375     0.4522E-3
  3.376     0.4503E-3
  3.377     0.4484E-3
  3.378     0.4465E-3
  3.379     0.4447E-3
  3.380     0.4428E-3
  3.381     0.4409E-3
  3.382     0.4391E-3
# 
# 06/19/2019 at 14:22 YPP @ br018.pvt.bridges.psc.edu [start]
# 06/19/2019 at 14:22                                 [end]
#  
# Timing   [Min/Max/Average]: 02s/02s/02s
#
# .-Input file : amp.in
# | excitons                     # [R] Excitons
# | amplitude                    # [R] Amplitude
# | BoseTemp=  0.02585     eV    # Bosonic Temperature
# | States= "1 - 20"             # Index of the BS state(s)
# | #DipWeight                   #  Weight the contribution to the exciton WFs with the dipoles
# | Degen_Step=0.1000E-4   eV    # Maximum energy separation of two degenerate states
