#  __      __   ______   __       __  _______    ______     
# |  \    /  \ /      \ |  \     /  \|       \  /      \    
#  \$$\  /  $$|  $$$$$$\| $$\   /  $$| $$$$$$$\|  $$$$$$\   
#   \$$\/  $$ | $$__| $$| $$$\ /  $$$| $$__/ $$| $$  | $$   
#    \$$  $$  | $$    $$| $$$$\  $$$$| $$    $$| $$  | $$   
#     \$$$$   | $$$$$$$$| $$\$$ $$ $$| $$$$$$$\| $$  | $$   
#     | $$    | $$  | $$| $$ \$$$| $$| $$__/ $$| $$__/ $$   
#     | $$    | $$  | $$| $$  \$ | $$| $$    $$ \$$    $$   
#      \$$     \$$   \$$ \$$      \$$ \$$$$$$$   \$$$$$$    
#                                                           
#              GPL Version 4.1.4 Revision 76                
#                        MPI Build                          
#                http://www.yambo-code.org                  
#
# BSK|Identifier              :7677
#    |Dimension               :3278
#    |Bands                   :534 - 614
#    |Exchange           [res]: yes
#    |Correlation        [res]: no
#    |Kernel`s coupling       : no
#    |Exchange           [cpl]: no
#    |Correlation        [cpl]: no
#    |W interaction is bare   : no
#    |ALDA kernel in R-space  : no
#    |RL vectors    [exchange]:55207
#    |E/h energy range    [ev]:-1.000000 - -1.000000
#    |Coupling range     [o/o]: 100.0000 -  100.0000
#
# Electron-Hole pairs that contributes to Excitonic State 1 more than 5%
#
#  E    [eV]  Amplitude
#  
  1.616     0.3998E-3
  1.617     0.4014E-3
  1.618     0.4031E-3
  1.619     0.4047E-3
  1.620     0.4063E-3
  1.621     0.4080E-3
  1.622     0.4096E-3
  1.623     0.4113E-3
  1.624     0.4129E-3
  1.625     0.4146E-3
  1.626     0.4163E-3
  1.627     0.4180E-3
  1.628     0.4197E-3
  1.629     0.4215E-3
  1.630     0.4232E-3
  1.631     0.4249E-3
  1.632     0.4267E-3
  1.633     0.4285E-3
  1.634     0.4302E-3
  1.635     0.4320E-3
  1.636     0.4338E-3
  1.637     0.4357E-3
  1.638     0.4375E-3
  1.639     0.4393E-3
  1.640     0.4412E-3
  1.641     0.4430E-3
  1.642     0.4449E-3
  1.643     0.4468E-3
  1.644     0.4487E-3
  1.645     0.4506E-3
  1.646     0.4525E-3
  1.647     0.4544E-3
  1.648     0.4564E-3
  1.649     0.4583E-3
  1.650     0.4603E-3
  1.651     0.4623E-3
  1.652     0.4643E-3
  1.653     0.4663E-3
  1.654     0.4683E-3
  1.655     0.4703E-3
  1.656     0.4724E-3
  1.657     0.4744E-3
  1.658     0.4765E-3
  1.659     0.4786E-3
  1.660     0.4807E-3
  1.661     0.4828E-3
  1.662     0.4849E-3
  1.663     0.4871E-3
  1.664     0.4892E-3
  1.665     0.4914E-3
  1.666     0.4936E-3
  1.667     0.4958E-3
  1.668     0.4980E-3
  1.669     0.5002E-3
  1.670     0.5025E-3
  1.671     0.5047E-3
  1.672     0.5070E-3
  1.673     0.5093E-3
  1.674     0.5116E-3
  1.675     0.5139E-3
  1.676     0.5163E-3
  1.677     0.5186E-3
  1.678     0.5210E-3
  1.679     0.5234E-3
  1.680     0.5258E-3
  1.681     0.5282E-3
  1.682     0.5306E-3
  1.683     0.5331E-3
  1.684     0.5355E-3
  1.685     0.5380E-3
  1.686     0.5405E-3
  1.687     0.5431E-3
  1.688     0.5456E-3
  1.689     0.5482E-3
  1.690     0.5507E-3
  1.691     0.5533E-3
  1.692     0.5559E-3
  1.693     0.5586E-3
  1.694     0.5612E-3
  1.695     0.5639E-3
  1.696     0.5666E-3
  1.697     0.5693E-3
  1.698     0.5720E-3
  1.699     0.5747E-3
  1.700     0.5775E-3
  1.701     0.5803E-3
  1.702     0.5831E-3
  1.703     0.5859E-3
  1.704     0.5888E-3
  1.705     0.5916E-3
  1.706     0.5945E-3
  1.707     0.5974E-3
  1.708     0.6004E-3
  1.709     0.6033E-3
  1.710     0.6063E-3
  1.711     0.6093E-3
  1.712     0.6123E-3
  1.713     0.6154E-3
  1.714     0.6184E-3
  1.715     0.6215E-3
  1.716     0.6246E-3
  1.717     0.6277E-3
  1.718     0.6309E-3
  1.719     0.6341E-3
  1.720     0.6373E-3
  1.721     0.6405E-3
  1.722     0.6438E-3
  1.723     0.6470E-3
  1.724     0.6503E-3
  1.725     0.6537E-3
  1.726     0.6570E-3
  1.727     0.6604E-3
  1.728     0.6638E-3
  1.729     0.6672E-3
  1.730     0.6707E-3
  1.731     0.6742E-3
  1.732     0.6777E-3
  1.733     0.6813E-3
  1.734     0.6848E-3
  1.735     0.6884E-3
  1.736     0.6920E-3
  1.737     0.6957E-3
  1.738     0.6994E-3
  1.739     0.7031E-3
  1.740     0.7068E-3
  1.741     0.7106E-3
  1.742     0.7144E-3
  1.743     0.7182E-3
  1.744     0.7221E-3
  1.745     0.7260E-3
  1.746     0.7299E-3
  1.747     0.7339E-3
  1.748     0.7379E-3
  1.749     0.7419E-3
  1.750     0.7460E-3
  1.751     0.7500E-3
  1.752     0.7542E-3
  1.753     0.7583E-3
  1.754     0.7625E-3
  1.755     0.7667E-3
  1.756     0.7710E-3
  1.757     0.7753E-3
  1.758     0.7796E-3
  1.759     0.7840E-3
  1.760     0.7884E-3
  1.761     0.7929E-3
  1.762     0.7973E-3
  1.763     0.8019E-3
  1.764     0.8064E-3
  1.765     0.8110E-3
  1.766     0.8157E-3
  1.767     0.8203E-3
  1.768     0.8251E-3
  1.769     0.8298E-3
  1.770     0.8346E-3
  1.771     0.8395E-3
  1.772     0.8443E-3
  1.773     0.8493E-3
  1.774     0.8542E-3
  1.775     0.8592E-3
  1.776     0.8643E-3
  1.777     0.8694E-3
  1.778     0.8746E-3
  1.779     0.8797E-3
  1.780     0.8850E-3
  1.781     0.8903E-3
  1.782     0.8956E-3
  1.783     0.9010E-3
  1.784     0.9064E-3
  1.785     0.9119E-3
  1.786     0.9174E-3
  1.787     0.9230E-3
  1.788     0.9286E-3
  1.789     0.9343E-3
  1.790     0.9401E-3
  1.791     0.9459E-3
  1.792     0.9517E-3
  1.793     0.9576E-3
  1.794     0.9635E-3
  1.795     0.9695E-3
  1.796     0.9756E-3
  1.797     0.9817E-3
  1.798     0.9879E-3
  1.799     0.9941E-3
  1.800     0.1000E-2
  1.801     0.1007E-2
  1.802     0.1013E-2
  1.803     0.1020E-2
  1.804     0.1026E-2
  1.805     0.1033E-2
  1.806     0.1040E-2
  1.807     0.1046E-2
  1.808     0.1053E-2
  1.809     0.1060E-2
  1.810     0.1067E-2
  1.811     0.1074E-2
  1.812     0.1081E-2
  1.813     0.1088E-2
  1.814     0.1095E-2
  1.815     0.1103E-2
  1.816     0.1110E-2
  1.817     0.1117E-2
  1.818     0.1125E-2
  1.819     0.1132E-2
  1.820     0.1140E-2
  1.821     0.1148E-2
  1.822     0.1156E-2
  1.823     0.1163E-2
  1.824     0.1171E-2
  1.825     0.1180E-2
  1.826     0.1188E-2
  1.827     0.1196E-2
  1.828     0.1204E-2
  1.829     0.1213E-2
  1.830     0.1221E-2
  1.831     0.1230E-2
  1.832     0.1238E-2
  1.833     0.1247E-2
  1.834     0.1256E-2
  1.835     0.1265E-2
  1.836     0.1274E-2
  1.837     0.1283E-2
  1.838     0.1292E-2
  1.839     0.1302E-2
  1.840     0.1311E-2
  1.841     0.1321E-2
  1.842     0.1330E-2
  1.843     0.1340E-2
  1.844     0.1350E-2
  1.845     0.1360E-2
  1.846     0.1370E-2
  1.847     0.1380E-2
  1.848     0.1390E-2
  1.849     0.1401E-2
  1.850     0.1411E-2
  1.851     0.1422E-2
  1.852     0.1433E-2
  1.853     0.1444E-2
  1.854     0.1455E-2
  1.855     0.1466E-2
  1.856     0.1477E-2
  1.857     0.1489E-2
  1.858     0.1500E-2
  1.859     0.1512E-2
  1.860     0.1524E-2
  1.861     0.1536E-2
  1.862     0.1548E-2
  1.863     0.1560E-2
  1.864     0.1572E-2
  1.865     0.1585E-2
  1.866     0.1597E-2
  1.867     0.1610E-2
  1.868     0.1623E-2
  1.869     0.1636E-2
  1.870     0.1650E-2
  1.871     0.1663E-2
  1.872     0.1677E-2
  1.873     0.1691E-2
  1.874     0.1705E-2
  1.875     0.1719E-2
  1.876     0.1733E-2
  1.877     0.1748E-2
  1.878     0.1762E-2
  1.879     0.1777E-2
  1.880     0.1792E-2
  1.881     0.1808E-2
  1.882     0.1823E-2
  1.883     0.1839E-2
  1.884     0.1854E-2
  1.885     0.1871E-2
    1.8864     0.0019
    1.8874     0.0019
    1.8884     0.0019
    1.8894     0.0019
    1.8904     0.0020
    1.8914     0.0020
    1.8924     0.0020
    1.8934     0.0020
    1.8944     0.0020
    1.8954     0.0020
    1.8964     0.0021
    1.8974     0.0021
    1.8984     0.0021
    1.8994     0.0021
    1.9004     0.0021
    1.9014     0.0022
    1.9024     0.0022
    1.9034     0.0022
    1.9044     0.0022
    1.9054     0.0022
    1.9064     0.0023
    1.9074     0.0023
    1.9084     0.0023
    1.9094     0.0023
    1.9104     0.0024
    1.9114     0.0024
    1.9124     0.0024
    1.9134     0.0024
    1.9144     0.0024
    1.9154     0.0025
    1.9164     0.0025
    1.9174     0.0025
    1.9184     0.0025
    1.9194     0.0026
    1.9204     0.0026
    1.9214     0.0026
    1.9224     0.0026
    1.9234     0.0027
    1.9244     0.0027
    1.9254     0.0027
    1.9264     0.0028
    1.9274     0.0028
    1.9284     0.0028
    1.9294     0.0029
    1.9304     0.0029
    1.9314     0.0029
    1.9324     0.0029
    1.9334     0.0030
    1.9344     0.0030
    1.9354     0.0030
    1.9364     0.0031
    1.9374     0.0031
    1.9384     0.0031
    1.9394     0.0032
    1.9404     0.0032
    1.9414     0.0033
    1.9424     0.0033
    1.9434     0.0033
    1.9444     0.0034
    1.9454     0.0034
    1.9464     0.0034
    1.9474     0.0035
    1.9484     0.0035
    1.9494     0.0036
    1.9504     0.0036
    1.9514     0.0037
    1.9524     0.0037
    1.9534     0.0037
    1.9544     0.0038
    1.9554     0.0038
    1.9564     0.0039
    1.9574     0.0039
    1.9584     0.0040
    1.9594     0.0040
    1.9604     0.0041
    1.9614     0.0041
    1.9624     0.0042
    1.9634     0.0043
    1.9644     0.0043
    1.9654     0.0044
    1.9664     0.0044
    1.9674     0.0045
    1.9684     0.0045
    1.9694     0.0046
    1.9704     0.0047
    1.9714     0.0047
    1.9724     0.0048
    1.9734     0.0049
    1.9744     0.0049
    1.9754     0.0050
    1.9764     0.0051
    1.9774     0.0051
    1.9784     0.0052
    1.9794     0.0053
    1.9804     0.0054
    1.9814     0.0055
    1.9824     0.0055
    1.9834     0.0056
    1.9844     0.0057
    1.9854     0.0058
    1.9864     0.0059
    1.9874     0.0060
    1.9884     0.0061
    1.9894     0.0062
    1.9904     0.0063
    1.9914     0.0064
    1.9924     0.0065
    1.9934     0.0066
    1.9944     0.0067
    1.9954     0.0068
    1.9964     0.0069
    1.9974     0.0070
    1.9984     0.0071
    1.9994     0.0073
    2.0004     0.0074
    2.0014     0.0075
    2.0024     0.0076
    2.0034     0.0078
    2.0044     0.0079
    2.0054     0.0081
    2.0064     0.0082
    2.0074     0.0083
    2.0084     0.0085
    2.0094     0.0087
    2.0104     0.0088
    2.0114     0.0090
    2.0124     0.0092
    2.0134     0.0093
    2.0144     0.0095
    2.0154     0.0097
    2.0164     0.0099
   2.01741    0.01010
   2.01841    0.01031
   2.01941    0.01052
   2.02041    0.01073
   2.02141    0.01096
   2.02241    0.01119
   2.02341    0.01143
   2.02441    0.01168
   2.02541    0.01193
   2.02641    0.01220
   2.02741    0.01247
   2.02841    0.01275
   2.02941    0.01304
   2.03041    0.01334
   2.03141    0.01365
   2.03241    0.01397
   2.03341    0.01431
   2.03441    0.01465
   2.03541    0.01501
   2.03641    0.01538
   2.03741    0.01577
   2.03841    0.01617
   2.03941    0.01659
   2.04041    0.01702
   2.04141    0.01747
   2.04241    0.01793
   2.04341    0.01842
   2.04441    0.01893
   2.04541    0.01945
   2.04641    0.02000
   2.04741    0.02057
   2.04841    0.02117
   2.04941    0.02179
   2.05041    0.02244
   2.05141    0.02312
   2.05241    0.02383
   2.05341    0.02458
   2.05441    0.02536
   2.05541    0.02617
   2.05641    0.02703
   2.05741    0.02793
   2.05841    0.02887
   2.05941    0.02986
   2.06041    0.03090
   2.06141    0.03200
   2.06241    0.03316
   2.06341    0.03438
   2.06441    0.03566
   2.06541    0.03702
   2.06641    0.03846
   2.06741    0.03998
   2.06841    0.04160
   2.06941    0.04331
   2.07041    0.04513
   2.07141    0.04706
   2.07241    0.04912
   2.07341    0.05131
   2.07441    0.05365
   2.07541    0.05615
   2.07641    0.05882
   2.07741    0.06169
   2.07841    0.06477
   2.07941    0.06807
   2.08041    0.07163
   2.08141    0.07547
   2.08241    0.07962
   2.08341    0.08410
   2.08441    0.08897
   2.08541    0.09425
  2.086414   0.100000
  2.087414   0.106270
  2.088414   0.113123
  2.089414   0.120627
  2.090414   0.128867
  2.091414   0.137932
  2.092414   0.147931
  2.093414   0.158984
  2.094414   0.171233
  2.095414   0.184845
  2.096414   0.200001
  2.097414   0.216923
  2.098414   0.235851
  2.099414   0.257069
  2.100414   0.280902
  2.101414   0.307693
  2.102414   0.337843
  2.103414   0.371750
  2.104414   0.409836
  2.105414   0.452493
  2.106414   0.500001
  2.107414   0.552494
  2.108414   0.609760
  2.109414   0.671152
  2.110414   0.735300
  2.111414   0.800001
  2.112414   0.862077
  2.113414   0.917434
  2.114414   0.961545
  2.115414   0.990101
  2.116414   1.000000
  2.117414   0.990097
  2.118414   0.961537
  2.119414   0.917423
  2.120414   0.862065
  2.121414   0.800001
  2.122414   0.735287
  2.123414   0.671139
  2.124414   0.609748
  2.125414   0.552483
  2.126414   0.499991
  2.127414   0.452484
  2.128414   0.409836
  2.129414   0.371742
  2.130414   0.337836
  2.131414   0.307687
  2.132414   0.280897
  2.133414   0.257069
  2.134414   0.235847
  2.135414   0.216919
  2.136414   0.199997
  2.137414   0.184842
  2.138414   0.171233
  2.139414   0.158981
  2.140414   0.147929
  2.141414   0.137930
  2.142414   0.128865
  2.143414   0.120627
  2.144414   0.113121
  2.145414   0.106270
   2.14641    0.10000
   2.14741    0.09425
   2.14841    0.08897
   2.14941    0.08410
   2.15041    0.07962
   2.15141    0.07547
   2.15241    0.07163
   2.15341    0.06807
   2.15441    0.06477
   2.15541    0.06169
   2.15641    0.05882
   2.15741    0.05615
   2.15841    0.05365
   2.15941    0.05131
   2.16041    0.04912
   2.16141    0.04706
   2.16241    0.04513
   2.16341    0.04331
   2.16441    0.04160
   2.16541    0.03998
   2.16641    0.03846
   2.16741    0.03702
   2.16841    0.03566
   2.16941    0.03438
   2.17041    0.03316
   2.17141    0.03200
   2.17241    0.03090
   2.17341    0.02986
   2.17441    0.02887
   2.17541    0.02793
   2.17641    0.02703
   2.17741    0.02617
   2.17841    0.02535
   2.17941    0.02458
   2.18041    0.02383
   2.18141    0.02312
   2.18241    0.02244
   2.18341    0.02179
   2.18441    0.02117
   2.18541    0.02057
   2.18641    0.02000
   2.18741    0.01945
   2.18841    0.01893
   2.18941    0.01842
   2.19041    0.01793
   2.19141    0.01747
   2.19241    0.01702
   2.19341    0.01659
   2.19441    0.01617
   2.19541    0.01577
   2.19641    0.01538
   2.19741    0.01501
   2.19841    0.01465
   2.19941    0.01431
   2.20041    0.01397
   2.20141    0.01365
   2.20241    0.01334
   2.20341    0.01304
   2.20441    0.01275
   2.20541    0.01247
   2.20641    0.01220
   2.20741    0.01193
   2.20841    0.01168
   2.20941    0.01143
   2.21041    0.01119
   2.21141    0.01096
   2.21241    0.01073
   2.21341    0.01052
   2.21441    0.01030
   2.21541    0.01010
    2.2164     0.0099
    2.2174     0.0097
    2.2184     0.0095
    2.2194     0.0093
    2.2204     0.0092
    2.2214     0.0090
    2.2224     0.0088
    2.2234     0.0087
    2.2244     0.0085
    2.2254     0.0083
    2.2264     0.0082
    2.2274     0.0081
    2.2284     0.0079
    2.2294     0.0078
    2.2304     0.0076
    2.2314     0.0075
    2.2324     0.0074
    2.2334     0.0073
    2.2344     0.0071
    2.2354     0.0070
    2.2364     0.0069
    2.2374     0.0068
    2.2384     0.0067
    2.2394     0.0066
    2.2404     0.0065
    2.2414     0.0064
    2.2424     0.0063
    2.2434     0.0062
    2.2444     0.0061
    2.2454     0.0060
    2.2464     0.0059
    2.2474     0.0058
    2.2484     0.0057
    2.2494     0.0056
    2.2504     0.0055
    2.2514     0.0055
    2.2524     0.0054
    2.2534     0.0053
    2.2544     0.0052
    2.2554     0.0051
    2.2564     0.0051
    2.2574     0.0050
    2.2584     0.0049
    2.2594     0.0049
    2.2604     0.0048
    2.2614     0.0047
    2.2624     0.0047
    2.2634     0.0046
    2.2644     0.0045
    2.2654     0.0045
    2.2664     0.0044
    2.2674     0.0044
    2.2684     0.0043
    2.2694     0.0043
    2.2704     0.0042
    2.2714     0.0041
    2.2724     0.0041
    2.2734     0.0040
    2.2744     0.0040
    2.2754     0.0039
    2.2764     0.0039
    2.2774     0.0038
    2.2784     0.0038
    2.2794     0.0037
    2.2804     0.0037
    2.2814     0.0037
    2.2824     0.0036
    2.2834     0.0036
    2.2844     0.0035
    2.2854     0.0035
    2.2864     0.0034
    2.2874     0.0034
    2.2884     0.0034
    2.2894     0.0033
    2.2904     0.0033
    2.2914     0.0033
    2.2924     0.0032
    2.2934     0.0032
    2.2944     0.0031
    2.2954     0.0031
    2.2964     0.0031
    2.2974     0.0030
    2.2984     0.0030
    2.2994     0.0030
    2.3004     0.0029
    2.3014     0.0029
    2.3024     0.0029
    2.3034     0.0029
    2.3044     0.0028
    2.3054     0.0028
    2.3064     0.0028
    2.3074     0.0027
    2.3084     0.0027
    2.3094     0.0027
    2.3104     0.0026
    2.3114     0.0026
    2.3124     0.0026
    2.3134     0.0026
    2.3144     0.0025
    2.3154     0.0025
    2.3164     0.0025
    2.3174     0.0025
    2.3184     0.0024
    2.3194     0.0024
    2.3204     0.0024
    2.3214     0.0024
    2.3224     0.0024
    2.3234     0.0023
  2.324     0.2306E-2
  2.325     0.2284E-2
  2.326     0.2262E-2
  2.327     0.2241E-2
  2.328     0.2220E-2
  2.329     0.2199E-2
  2.330     0.2179E-2
  2.331     0.2159E-2
  2.332     0.2139E-2
  2.333     0.2119E-2
  2.334     0.2100E-2
  2.335     0.2081E-2
  2.336     0.2062E-2
  2.337     0.2043E-2
  2.338     0.2025E-2
  2.339     0.2007E-2
  2.340     0.1989E-2
  2.341     0.1971E-2
  2.342     0.1954E-2
  2.343     0.1937E-2
  2.344     0.1920E-2
  2.345     0.1903E-2
  2.346     0.1887E-2
  2.347     0.1871E-2
  2.348     0.1854E-2
  2.349     0.1839E-2
  2.350     0.1823E-2
  2.351     0.1808E-2
  2.352     0.1792E-2
  2.353     0.1777E-2
  2.354     0.1762E-2
  2.355     0.1748E-2
  2.356     0.1733E-2
  2.357     0.1719E-2
  2.358     0.1705E-2
  2.359     0.1691E-2
  2.360     0.1677E-2
  2.361     0.1663E-2
  2.362     0.1650E-2
  2.363     0.1636E-2
  2.364     0.1623E-2
  2.365     0.1610E-2
  2.366     0.1597E-2
  2.367     0.1585E-2
  2.368     0.1572E-2
  2.369     0.1560E-2
  2.370     0.1548E-2
  2.371     0.1536E-2
  2.372     0.1524E-2
  2.373     0.1512E-2
  2.374     0.1500E-2
  2.375     0.1489E-2
  2.376     0.1477E-2
  2.377     0.1466E-2
  2.378     0.1455E-2
  2.379     0.1444E-2
  2.380     0.1433E-2
  2.381     0.1422E-2
  2.382     0.1411E-2
  2.383     0.1401E-2
  2.384     0.1390E-2
  2.385     0.1380E-2
  2.386     0.1370E-2
  2.387     0.1360E-2
  2.388     0.1350E-2
  2.389     0.1340E-2
  2.390     0.1330E-2
  2.391     0.1321E-2
  2.392     0.1311E-2
  2.393     0.1302E-2
  2.394     0.1292E-2
  2.395     0.1283E-2
  2.396     0.1274E-2
  2.397     0.1265E-2
  2.398     0.1256E-2
  2.399     0.1247E-2
  2.400     0.1238E-2
  2.401     0.1230E-2
  2.402     0.1221E-2
  2.403     0.1213E-2
  2.404     0.1204E-2
  2.405     0.1196E-2
  2.406     0.1188E-2
  2.407     0.1180E-2
  2.408     0.1171E-2
  2.409     0.1163E-2
  2.410     0.1156E-2
  2.411     0.1148E-2
  2.412     0.1140E-2
  2.413     0.1132E-2
  2.414     0.1125E-2
  2.415     0.1117E-2
  2.416     0.1110E-2
  2.417     0.1103E-2
  2.418     0.1095E-2
  2.419     0.1088E-2
  2.420     0.1081E-2
  2.421     0.1074E-2
  2.422     0.1067E-2
  2.423     0.1060E-2
  2.424     0.1053E-2
  2.425     0.1046E-2
  2.426     0.1040E-2
  2.427     0.1033E-2
  2.428     0.1026E-2
  2.429     0.1020E-2
  2.430     0.1013E-2
  2.431     0.1007E-2
  2.432     0.1000E-2
  2.433     0.9941E-3
  2.434     0.9879E-3
  2.435     0.9817E-3
  2.436     0.9756E-3
  2.437     0.9695E-3
  2.438     0.9635E-3
  2.439     0.9576E-3
  2.440     0.9517E-3
  2.441     0.9458E-3
  2.442     0.9401E-3
  2.443     0.9343E-3
  2.444     0.9286E-3
  2.445     0.9230E-3
  2.446     0.9174E-3
  2.447     0.9119E-3
  2.448     0.9064E-3
  2.449     0.9010E-3
  2.450     0.8956E-3
  2.451     0.8903E-3
  2.452     0.8850E-3
  2.453     0.8797E-3
  2.454     0.8746E-3
  2.455     0.8694E-3
  2.456     0.8643E-3
  2.457     0.8592E-3
  2.458     0.8542E-3
  2.459     0.8493E-3
  2.460     0.8443E-3
  2.461     0.8395E-3
  2.462     0.8346E-3
  2.463     0.8298E-3
  2.464     0.8251E-3
  2.465     0.8203E-3
  2.466     0.8157E-3
  2.467     0.8110E-3
  2.468     0.8064E-3
  2.469     0.8019E-3
  2.470     0.7973E-3
  2.471     0.7929E-3
  2.472     0.7884E-3
  2.473     0.7840E-3
  2.474     0.7796E-3
  2.475     0.7753E-3
  2.476     0.7710E-3
  2.477     0.7667E-3
  2.478     0.7625E-3
  2.479     0.7583E-3
  2.480     0.7542E-3
  2.481     0.7500E-3
  2.482     0.7460E-3
  2.483     0.7419E-3
  2.484     0.7379E-3
  2.485     0.7339E-3
  2.486     0.7299E-3
  2.487     0.7260E-3
  2.488     0.7221E-3
  2.489     0.7182E-3
  2.490     0.7144E-3
  2.491     0.7106E-3
  2.492     0.7068E-3
  2.493     0.7031E-3
  2.494     0.6994E-3
  2.495     0.6957E-3
  2.496     0.6920E-3
  2.497     0.6884E-3
  2.498     0.6848E-3
  2.499     0.6812E-3
  2.500     0.6777E-3
  2.501     0.6742E-3
  2.502     0.6707E-3
  2.503     0.6672E-3
  2.504     0.6638E-3
  2.505     0.6604E-3
  2.506     0.6570E-3
  2.507     0.6537E-3
  2.508     0.6503E-3
  2.509     0.6470E-3
  2.510     0.6438E-3
  2.511     0.6405E-3
  2.512     0.6373E-3
  2.513     0.6341E-3
  2.514     0.6309E-3
  2.515     0.6277E-3
  2.516     0.6246E-3
  2.517     0.6215E-3
  2.518     0.6184E-3
  2.519     0.6154E-3
  2.520     0.6123E-3
  2.521     0.6093E-3
  2.522     0.6063E-3
  2.523     0.6033E-3
  2.524     0.6004E-3
  2.525     0.5974E-3
  2.526     0.5945E-3
  2.527     0.5916E-3
  2.528     0.5888E-3
  2.529     0.5859E-3
  2.530     0.5831E-3
  2.531     0.5803E-3
  2.532     0.5775E-3
  2.533     0.5747E-3
  2.534     0.5720E-3
  2.535     0.5693E-3
  2.536     0.5666E-3
  2.537     0.5639E-3
  2.538     0.5612E-3
  2.539     0.5586E-3
  2.540     0.5559E-3
  2.541     0.5533E-3
  2.542     0.5507E-3
  2.543     0.5482E-3
  2.544     0.5456E-3
  2.545     0.5431E-3
  2.546     0.5405E-3
  2.547     0.5380E-3
  2.548     0.5355E-3
  2.549     0.5331E-3
  2.550     0.5306E-3
  2.551     0.5282E-3
  2.552     0.5258E-3
  2.553     0.5234E-3
  2.554     0.5210E-3
  2.555     0.5186E-3
  2.556     0.5163E-3
  2.557     0.5139E-3
  2.558     0.5116E-3
  2.559     0.5093E-3
  2.560     0.5070E-3
  2.561     0.5047E-3
  2.562     0.5025E-3
  2.563     0.5002E-3
  2.564     0.4980E-3
  2.565     0.4958E-3
  2.566     0.4936E-3
  2.567     0.4914E-3
  2.568     0.4892E-3
  2.569     0.4871E-3
  2.570     0.4849E-3
  2.571     0.4828E-3
  2.572     0.4807E-3
  2.573     0.4786E-3
  2.574     0.4765E-3
  2.575     0.4744E-3
  2.576     0.4724E-3
  2.577     0.4703E-3
  2.578     0.4683E-3
  2.579     0.4663E-3
  2.580     0.4643E-3
  2.581     0.4623E-3
  2.582     0.4603E-3
  2.583     0.4583E-3
  2.584     0.4564E-3
  2.585     0.4544E-3
  2.586     0.4525E-3
  2.587     0.4506E-3
  2.588     0.4487E-3
  2.589     0.4468E-3
  2.590     0.4449E-3
  2.591     0.4430E-3
  2.592     0.4412E-3
  2.593     0.4393E-3
  2.594     0.4375E-3
  2.595     0.4357E-3
  2.596     0.4338E-3
  2.597     0.4320E-3
  2.598     0.4302E-3
  2.599     0.4285E-3
  2.600     0.4267E-3
  2.601     0.4249E-3
  2.602     0.4232E-3
  2.603     0.4215E-3
  2.604     0.4197E-3
  2.605     0.4180E-3
  2.606     0.4163E-3
  2.607     0.4146E-3
  2.608     0.4129E-3
  2.609     0.4113E-3
  2.610     0.4096E-3
  2.611     0.4080E-3
  2.612     0.4063E-3
  2.613     0.4047E-3
  2.614     0.4031E-3
  2.615     0.4014E-3
# 
# 06/19/2019 at 14:22 YPP @ br018.pvt.bridges.psc.edu [start]
# 06/19/2019 at 14:22                                 [end]
#  
# Timing   [Min/Max/Average]: 02s/02s/02s
#
# .-Input file : amp.in
# | excitons                     # [R] Excitons
# | amplitude                    # [R] Amplitude
# | BoseTemp=  0.02585     eV    # Bosonic Temperature
# | States= "1 - 20"             # Index of the BS state(s)
# | #DipWeight                   #  Weight the contribution to the exciton WFs with the dipoles
# | Degen_Step=0.1000E-4   eV    # Maximum energy separation of two degenerate states
