#  __      __   ______   __       __  _______    ______     
# |  \    /  \ /      \ |  \     /  \|       \  /      \    
#  \$$\  /  $$|  $$$$$$\| $$\   /  $$| $$$$$$$\|  $$$$$$\   
#   \$$\/  $$ | $$__| $$| $$$\ /  $$$| $$__/ $$| $$  | $$   
#    \$$  $$  | $$    $$| $$$$\  $$$$| $$    $$| $$  | $$   
#     \$$$$   | $$$$$$$$| $$\$$ $$ $$| $$$$$$$\| $$  | $$   
#     | $$    | $$  | $$| $$ \$$$| $$| $$__/ $$| $$__/ $$   
#     | $$    | $$  | $$| $$  \$ | $$| $$    $$ \$$    $$   
#      \$$     \$$   \$$ \$$      \$$ \$$$$$$$   \$$$$$$    
#                                                           
#              GPL Version 4.1.4 Revision 76                
#                        MPI Build                          
#                http://www.yambo-code.org                  
#
# BSK|Identifier              :7677
#    |Dimension               :3278
#    |Bands                   :534 - 614
#    |Exchange           [res]: yes
#    |Correlation        [res]: no
#    |Kernel`s coupling       : no
#    |Exchange           [cpl]: no
#    |Correlation        [cpl]: no
#    |W interaction is bare   : no
#    |ALDA kernel in R-space  : no
#    |RL vectors    [exchange]:55207
#    |E/h energy range    [ev]:-1.000000 - -1.000000
#    |Coupling range     [o/o]: 100.0000 -  100.0000
#
# Electron-Hole pairs that contributes to Excitonic State 2 more than 5%
#
#  E    [eV]  Amplitude
#  
  1.529     0.1316E-2
  1.531     0.1326E-2
  1.533     0.1335E-2
  1.535     0.1345E-2
  1.536     0.1355E-2
  1.538     0.1365E-2
  1.540     0.1375E-2
  1.542     0.1385E-2
  1.544     0.1396E-2
  1.546     0.1406E-2
  1.547     0.1417E-2
  1.549     0.1427E-2
  1.551     0.1438E-2
  1.553     0.1449E-2
  1.555     0.1460E-2
  1.556     0.1471E-2
  1.558     0.1483E-2
  1.560     0.1494E-2
  1.562     0.1506E-2
  1.564     0.1518E-2
  1.565     0.1529E-2
  1.567     0.1541E-2
  1.569     0.1553E-2
  1.571     0.1566E-2
    1.5727     0.0016
    1.5745     0.0016
    1.5763     0.0016
    1.5782     0.0016
    1.5800     0.0016
    1.5818     0.0016
    1.5836     0.0017
    1.5854     0.0017
    1.5872     0.0017
    1.5890     0.0017
    1.5908     0.0017
    1.5927     0.0017
    1.5945     0.0017
    1.5963     0.0018
    1.5981     0.0018
    1.5999     0.0018
    1.6017     0.0018
    1.6035     0.0018
    1.6053     0.0018
    1.6072     0.0018
    1.6090     0.0019
    1.6108     0.0019
    1.6126     0.0019
    1.6144     0.0019
    1.6162     0.0019
    1.6180     0.0019
    1.6198     0.0020
    1.6217     0.0020
    1.6235     0.0020
    1.6253     0.0020
    1.6271     0.0020
    1.6289     0.0021
    1.6307     0.0021
    1.6325     0.0021
    1.6343     0.0021
    1.6362     0.0021
    1.6380     0.0021
    1.6398     0.0022
    1.6416     0.0022
    1.6434     0.0022
    1.6452     0.0022
    1.6470     0.0022
    1.6488     0.0023
    1.6507     0.0023
    1.6525     0.0023
    1.6543     0.0023
    1.6561     0.0024
    1.6579     0.0024
    1.6597     0.0024
    1.6615     0.0024
    1.6633     0.0025
    1.6652     0.0025
    1.6670     0.0025
    1.6688     0.0025
    1.6706     0.0026
    1.6724     0.0026
    1.6742     0.0026
    1.6760     0.0026
    1.6778     0.0027
    1.6797     0.0027
    1.6815     0.0027
    1.6833     0.0027
    1.6851     0.0028
    1.6869     0.0028
    1.6887     0.0028
    1.6905     0.0029
    1.6923     0.0029
    1.6942     0.0029
    1.6960     0.0030
    1.6978     0.0030
    1.6996     0.0030
    1.7014     0.0031
    1.7032     0.0031
    1.7050     0.0031
    1.7068     0.0032
    1.7087     0.0032
    1.7105     0.0032
    1.7123     0.0033
    1.7141     0.0033
    1.7159     0.0033
    1.7177     0.0034
    1.7195     0.0034
    1.7213     0.0035
    1.7232     0.0035
    1.7250     0.0035
    1.7268     0.0036
    1.7286     0.0036
    1.7304     0.0037
    1.7322     0.0037
    1.7340     0.0038
    1.7358     0.0038
    1.7377     0.0039
    1.7395     0.0039
    1.7413     0.0040
    1.7431     0.0040
    1.7449     0.0041
    1.7467     0.0041
    1.7485     0.0042
    1.7503     0.0042
    1.7522     0.0043
    1.7540     0.0043
    1.7558     0.0044
    1.7576     0.0044
    1.7594     0.0045
    1.7612     0.0046
    1.7630     0.0046
    1.7648     0.0047
    1.7667     0.0047
    1.7685     0.0048
    1.7703     0.0049
    1.7721     0.0050
    1.7739     0.0050
    1.7757     0.0051
    1.7775     0.0052
    1.7793     0.0052
    1.7812     0.0053
    1.7830     0.0054
    1.7848     0.0055
    1.7866     0.0056
    1.7884     0.0056
    1.7902     0.0057
    1.7920     0.0058
    1.7938     0.0059
    1.7957     0.0060
    1.7975     0.0061
    1.7993     0.0062
    1.8011     0.0063
    1.8029     0.0064
    1.8047     0.0065
    1.8065     0.0066
    1.8083     0.0067
    1.8102     0.0068
    1.8120     0.0069
    1.8138     0.0070
    1.8156     0.0072
    1.8174     0.0073
    1.8192     0.0074
    1.8210     0.0075
    1.8228     0.0077
    1.8247     0.0078
    1.8265     0.0079
    1.8283     0.0081
    1.8301     0.0082
    1.8319     0.0084
    1.8337     0.0085
    1.8355     0.0087
    1.8373     0.0089
    1.8392     0.0090
    1.8410     0.0092
    1.8428     0.0094
    1.8446     0.0096
    1.8464     0.0097
    1.8482     0.0099
   1.85003    0.01014
   1.85184    0.01034
   1.85366    0.01056
   1.85547    0.01077
   1.85728    0.01100
   1.85909    0.01123
   1.86091    0.01147
   1.86272    0.01172
   1.86453    0.01198
   1.86634    0.01224
   1.86816    0.01252
   1.86997    0.01280
   1.87178    0.01309
   1.87359    0.01339
   1.87541    0.01371
   1.87722    0.01403
   1.87903    0.01437
   1.88084    0.01471
   1.88266    0.01508
   1.88447    0.01545
   1.88628    0.01584
   1.88809    0.01624
   1.88991    0.01666
   1.89172    0.01709
   1.89353    0.01754
   1.89534    0.01801
   1.89716    0.01850
   1.89897    0.01901
   1.90078    0.01954
   1.90260    0.02009
   1.90441    0.02067
   1.90622    0.02127
   1.90803    0.02189
   1.90985    0.02255
   1.91166    0.02323
   1.91347    0.02395
   1.91528    0.02470
   1.91710    0.02548
   1.91891    0.02630
   1.92072    0.02717
   1.92253    0.02807
   1.92435    0.02902
   1.92616    0.03002
   1.92797    0.03107
   1.92978    0.03218
   1.93160    0.03334
   1.93341    0.03457
   1.93522    0.03587
   1.93703    0.03724
   1.93885    0.03869
   1.94066    0.04023
   1.94247    0.04185
   1.94428    0.04358
   1.94610    0.04541
   1.94791    0.04736
   1.94972    0.04944
   1.95153    0.05165
   1.95335    0.05402
   1.95516    0.05654
   1.95697    0.05924
   1.95878    0.06214
   1.96060    0.06525
   1.96241    0.06859
   1.96422    0.07219
   1.96603    0.07607
   1.96785    0.08027
   1.96966    0.08481
   1.97147    0.08973
   1.97328    0.09508
  1.975097   0.100899
  1.976909   0.107251
  1.978722   0.114195
  1.980534   0.121802
  1.982347   0.130155
  1.984159   0.139350
  1.985972   0.149494
  1.987785   0.160714
  1.989597   0.173152
  1.991410   0.186976
  1.993222   0.202376
  1.995035   0.219575
  1.996847   0.238820
  1.998660   0.260400
  2.000472   0.284639
  2.002285   0.311897
  2.004098   0.342568
  2.005910   0.377062
  2.007723   0.415794
  2.009535   0.459140
  2.011348   0.507377
  2.013160   0.560583
  2.014973   0.618519
  2.016785   0.680416
  2.018598   0.744820
  2.020410   0.809376
  2.022223   0.870764
  2.024035   0.924795
  2.025848   0.966913
  2.027661   0.992938
  2.029473   1.000000
  2.031286   0.987279
  2.033098   0.956238
  2.034911   0.910217
  2.036723   0.853601
  2.038536   0.790907
  2.040349   0.726089
  2.042161   0.662210
  2.043973   0.601343
  2.045786   0.544726
  2.047598   0.492945
  2.049411   0.446134
  2.051224   0.404154
  2.053036   0.366687
  2.054849   0.333341
  2.056661   0.303699
  2.058474   0.277349
  2.060286   0.253913
  2.062099   0.233039
  2.063911   0.214413
  2.065724   0.197757
  2.067537   0.182834
  2.069349   0.169429
  2.071162   0.157358
  2.072974   0.146464
  2.074787   0.136606
  2.076599   0.127664
  2.078412   0.119535
  2.080224   0.112128
  2.082037   0.105362
   2.08385    0.09917
   2.08566    0.09349
   2.08747    0.08827
   2.08929    0.08346
   2.09110    0.07903
   2.09291    0.07493
   2.09472    0.07113
   2.09654    0.06761
   2.09835    0.06433
   2.10016    0.06129
   2.10197    0.05845
   2.10379    0.05580
   2.10560    0.05332
   2.10741    0.05100
   2.10922    0.04883
   2.11104    0.04679
   2.11285    0.04488
   2.11466    0.04308
   2.11648    0.04138
   2.11829    0.03978
   2.12010    0.03827
   2.12191    0.03684
   2.12373    0.03549
   2.12554    0.03421
   2.12735    0.03300
   2.12916    0.03186
   2.13098    0.03077
   2.13279    0.02973
   2.13460    0.02875
   2.13641    0.02781
   2.13823    0.02692
   2.14004    0.02607
   2.14185    0.02526
   2.14366    0.02448
   2.14548    0.02375
   2.14729    0.02304
   2.14910    0.02236
   2.15091    0.02172
   2.15273    0.02110
   2.15454    0.02050
   2.15635    0.01994
   2.15816    0.01939
   2.15998    0.01887
   2.16179    0.01837
   2.16360    0.01788
   2.16541    0.01742
   2.16723    0.01697
   2.16904    0.01654
   2.17085    0.01613
   2.17266    0.01573
   2.17448    0.01535
   2.17629    0.01498
   2.17810    0.01462
   2.17991    0.01428
   2.18173    0.01394
   2.18354    0.01362
   2.18535    0.01331
   2.18716    0.01301
   2.18898    0.01272
   2.19079    0.01244
   2.19260    0.01217
   2.19441    0.01191
   2.19623    0.01166
   2.19804    0.01141
   2.19985    0.01117
   2.20166    0.01094
   2.20348    0.01072
   2.20529    0.01050
   2.20710    0.01029
   2.20891    0.01009
    2.2107     0.0099
    2.2125     0.0097
    2.2144     0.0095
    2.2162     0.0093
    2.2180     0.0092
    2.2198     0.0090
    2.2216     0.0088
    2.2234     0.0087
    2.2252     0.0085
    2.2270     0.0083
    2.2289     0.0082
    2.2307     0.0080
    2.2325     0.0079
    2.2343     0.0078
    2.2361     0.0076
    2.2379     0.0075
    2.2397     0.0074
    2.2415     0.0073
    2.2434     0.0071
    2.2452     0.0070
    2.2470     0.0069
    2.2488     0.0068
    2.2506     0.0067
    2.2524     0.0066
    2.2542     0.0065
    2.2560     0.0064
    2.2579     0.0063
    2.2597     0.0062
    2.2615     0.0061
    2.2633     0.0060
    2.2651     0.0059
    2.2669     0.0058
    2.2687     0.0057
    2.2705     0.0056
    2.2724     0.0055
    2.2742     0.0055
    2.2760     0.0054
    2.2778     0.0053
    2.2796     0.0052
    2.2814     0.0052
    2.2832     0.0051
    2.2850     0.0050
    2.2869     0.0049
    2.2887     0.0049
    2.2905     0.0048
    2.2923     0.0047
    2.2941     0.0047
    2.2959     0.0046
    2.2977     0.0046
    2.2995     0.0045
    2.3014     0.0044
    2.3032     0.0044
    2.3050     0.0043
    2.3068     0.0043
    2.3086     0.0042
    2.3104     0.0042
    2.3122     0.0041
    2.3140     0.0041
    2.3159     0.0040
    2.3177     0.0040
    2.3195     0.0039
    2.3213     0.0039
    2.3231     0.0038
    2.3249     0.0038
    2.3267     0.0037
    2.3285     0.0037
    2.3304     0.0036
    2.3322     0.0036
    2.3340     0.0035
    2.3358     0.0035
    2.3376     0.0035
    2.3394     0.0034
    2.3412     0.0034
    2.3430     0.0033
    2.3449     0.0033
    2.3467     0.0033
    2.3485     0.0032
    2.3503     0.0032
    2.3521     0.0032
    2.3539     0.0031
    2.3557     0.0031
    2.3575     0.0031
    2.3594     0.0030
    2.3612     0.0030
    2.3630     0.0030
    2.3648     0.0029
    2.3666     0.0029
    2.3684     0.0029
    2.3702     0.0028
    2.3720     0.0028
    2.3739     0.0028
    2.3757     0.0028
    2.3775     0.0027
    2.3793     0.0027
    2.3811     0.0027
    2.3829     0.0026
    2.3847     0.0026
    2.3865     0.0026
    2.3884     0.0026
    2.3902     0.0025
    2.3920     0.0025
    2.3938     0.0025
    2.3956     0.0025
    2.3974     0.0024
    2.3992     0.0024
    2.4010     0.0024
  2.403     0.2380E-2
  2.405     0.2358E-2
  2.406     0.2336E-2
  2.408     0.2314E-2
  2.410     0.2293E-2
  2.412     0.2272E-2
  2.414     0.2251E-2
  2.416     0.2231E-2
  2.417     0.2210E-2
  2.419     0.2191E-2
  2.421     0.2171E-2
  2.423     0.2152E-2
  2.425     0.2133E-2
  2.426     0.2114E-2
  2.428     0.2095E-2
  2.430     0.2077E-2
  2.432     0.2059E-2
  2.434     0.2042E-2
  2.435     0.2024E-2
  2.437     0.2007E-2
  2.439     0.1990E-2
  2.441     0.1973E-2
  2.443     0.1957E-2
  2.445     0.1940E-2
  2.446     0.1924E-2
  2.448     0.1908E-2
  2.450     0.1893E-2
  2.452     0.1877E-2
  2.454     0.1862E-2
  2.455     0.1847E-2
  2.457     0.1832E-2
  2.459     0.1817E-2
  2.461     0.1803E-2
  2.463     0.1789E-2
  2.464     0.1774E-2
  2.466     0.1761E-2
  2.468     0.1747E-2
  2.470     0.1733E-2
  2.472     0.1720E-2
  2.474     0.1707E-2
  2.475     0.1694E-2
  2.477     0.1681E-2
  2.479     0.1668E-2
  2.481     0.1656E-2
  2.483     0.1644E-2
  2.484     0.1631E-2
  2.486     0.1619E-2
  2.488     0.1607E-2
  2.490     0.1596E-2
  2.492     0.1584E-2
  2.493     0.1573E-2
  2.495     0.1561E-2
  2.497     0.1550E-2
  2.499     0.1539E-2
  2.501     0.1529E-2
  2.503     0.1518E-2
  2.504     0.1507E-2
  2.506     0.1497E-2
  2.508     0.1487E-2
  2.510     0.1476E-2
  2.512     0.1466E-2
  2.513     0.1456E-2
  2.515     0.1447E-2
  2.517     0.1437E-2
  2.519     0.1428E-2
  2.521     0.1418E-2
  2.522     0.1409E-2
  2.524     0.1400E-2
  2.526     0.1391E-2
  2.528     0.1382E-2
  2.530     0.1373E-2
  2.532     0.1364E-2
  2.533     0.1356E-2
  2.535     0.1347E-2
  2.537     0.1339E-2
  2.539     0.1331E-2
  2.541     0.1322E-2
  2.542     0.1314E-2
  2.544     0.1307E-2
  2.546     0.1299E-2
  2.548     0.1291E-2
  2.550     0.1283E-2
  2.551     0.1276E-2
  2.553     0.1269E-2
  2.555     0.1261E-2
  2.557     0.1254E-2
  2.559     0.1247E-2
  2.561     0.1240E-2
  2.562     0.1233E-2
  2.564     0.1226E-2
  2.566     0.1220E-2
  2.568     0.1213E-2
  2.570     0.1207E-2
  2.571     0.1200E-2
  2.573     0.1194E-2
  2.575     0.1188E-2
  2.577     0.1182E-2
  2.579     0.1176E-2
  2.580     0.1170E-2
  2.582     0.1164E-2
  2.584     0.1158E-2
  2.586     0.1153E-2
  2.588     0.1147E-2
  2.590     0.1142E-2
  2.591     0.1136E-2
  2.593     0.1131E-2
  2.595     0.1126E-2
  2.597     0.1121E-2
  2.599     0.1116E-2
  2.600     0.1111E-2
  2.602     0.1106E-2
  2.604     0.1102E-2
  2.606     0.1097E-2
  2.608     0.1093E-2
  2.609     0.1088E-2
  2.611     0.1084E-2
  2.613     0.1080E-2
  2.615     0.1076E-2
  2.617     0.1072E-2
  2.619     0.1068E-2
  2.620     0.1064E-2
  2.622     0.1060E-2
  2.624     0.1057E-2
  2.626     0.1053E-2
  2.628     0.1050E-2
  2.629     0.1047E-2
  2.631     0.1044E-2
  2.633     0.1041E-2
  2.635     0.1038E-2
  2.637     0.1035E-2
  2.638     0.1032E-2
  2.640     0.1030E-2
  2.642     0.1027E-2
  2.644     0.1025E-2
  2.646     0.1023E-2
  2.648     0.1020E-2
  2.649     0.1018E-2
  2.651     0.1017E-2
  2.653     0.1015E-2
  2.655     0.1013E-2
  2.657     0.1012E-2
  2.658     0.1011E-2
  2.660     0.1009E-2
  2.662     0.1008E-2
  2.664     0.1008E-2
  2.666     0.1007E-2
  2.667     0.1006E-2
  2.669     0.1006E-2
  2.671     0.1006E-2
  2.673     0.1006E-2
  2.675     0.1006E-2
  2.677     0.1006E-2
  2.678     0.1007E-2
  2.680     0.1008E-2
  2.682     0.1009E-2
  2.684     0.1010E-2
  2.686     0.1011E-2
  2.687     0.1013E-2
  2.689     0.1015E-2
  2.691     0.1017E-2
  2.693     0.1019E-2
  2.695     0.1022E-2
  2.696     0.1025E-2
  2.698     0.1028E-2
  2.700     0.1031E-2
  2.702     0.1035E-2
  2.704     0.1039E-2
  2.706     0.1044E-2
  2.707     0.1049E-2
  2.709     0.1054E-2
  2.711     0.1059E-2
  2.713     0.1066E-2
  2.715     0.1072E-2
  2.716     0.1079E-2
  2.718     0.1086E-2
  2.720     0.1094E-2
  2.722     0.1103E-2
  2.724     0.1112E-2
  2.725     0.1122E-2
  2.727     0.1132E-2
  2.729     0.1143E-2
  2.731     0.1155E-2
  2.733     0.1167E-2
  2.735     0.1181E-2
  2.736     0.1195E-2
  2.738     0.1210E-2
  2.740     0.1226E-2
  2.742     0.1243E-2
  2.744     0.1261E-2
  2.745     0.1281E-2
  2.747     0.1301E-2
  2.749     0.1323E-2
  2.751     0.1347E-2
  2.753     0.1372E-2
  2.754     0.1399E-2
  2.756     0.1428E-2
  2.758     0.1458E-2
  2.760     0.1491E-2
  2.762     0.1526E-2
  2.764     0.1564E-2
  2.765     0.1604E-2
  2.767     0.1648E-2
  2.769     0.1694E-2
  2.771     0.1745E-2
  2.773     0.1799E-2
  2.774     0.1857E-2
  2.776     0.1920E-2
  2.778     0.1988E-2
  2.780     0.2062E-2
  2.782     0.2143E-2
  2.783     0.2230E-2
  2.785     0.2325E-2
  2.787     0.2429E-2
  2.789     0.2542E-2
  2.791     0.2666E-2
    2.7926     0.0028
    2.7944     0.0030
    2.7962     0.0031
    2.7980     0.0033
    2.7998     0.0035
    2.8016     0.0037
    2.8034     0.0040
    2.8052     0.0042
    2.8071     0.0046
    2.8089     0.0049
    2.8107     0.0053
    2.8125     0.0057
    2.8143     0.0062
    2.8161     0.0068
    2.8179     0.0074
    2.8197     0.0081
    2.8216     0.0089
    2.8234     0.0098
   2.82518    0.01072
   2.82699    0.01178
   2.82880    0.01291
   2.83062    0.01411
   2.83243    0.01532
   2.83424    0.01649
   2.83605    0.01755
   2.83787    0.01841
   2.83968    0.01899
   2.84149    0.01922
   2.84330    0.01909
   2.84512    0.01860
   2.84693    0.01781
   2.84874    0.01679
   2.85055    0.01564
   2.85237    0.01443
   2.85418    0.01322
   2.85599    0.01206
   2.85780    0.01098
    2.8596     0.0100
    2.8614     0.0091
    2.8632     0.0083
    2.8651     0.0075
    2.8669     0.0069
    2.8687     0.0063
    2.8705     0.0058
    2.8723     0.0053
    2.8741     0.0049
    2.8759     0.0046
    2.8777     0.0042
    2.8796     0.0040
    2.8814     0.0037
    2.8832     0.0035
    2.8850     0.0032
    2.8868     0.0031
  2.889     0.2882E-2
  2.890     0.2724E-2
  2.892     0.2579E-2
  2.894     0.2447E-2
  2.896     0.2327E-2
  2.898     0.2216E-2
  2.899     0.2114E-2
  2.901     0.2020E-2
  2.903     0.1933E-2
  2.905     0.1853E-2
  2.907     0.1778E-2
  2.909     0.1709E-2
  2.910     0.1645E-2
  2.912     0.1585E-2
  2.914     0.1529E-2
  2.916     0.1477E-2
  2.918     0.1428E-2
  2.919     0.1382E-2
  2.921     0.1338E-2
  2.923     0.1298E-2
  2.925     0.1260E-2
  2.927     0.1224E-2
  2.928     0.1190E-2
  2.930     0.1158E-2
  2.932     0.1127E-2
  2.934     0.1099E-2
  2.936     0.1071E-2
  2.938     0.1045E-2
  2.939     0.1021E-2
  2.941     0.9973E-3
  2.943     0.9751E-3
  2.945     0.9538E-3
  2.947     0.9336E-3
  2.948     0.9143E-3
  2.950     0.8958E-3
  2.952     0.8781E-3
  2.954     0.8612E-3
  2.956     0.8450E-3
  2.957     0.8295E-3
  2.959     0.8146E-3
  2.961     0.8004E-3
  2.963     0.7866E-3
  2.965     0.7734E-3
  2.967     0.7607E-3
  2.968     0.7485E-3
  2.970     0.7368E-3
  2.972     0.7254E-3
  2.974     0.7145E-3
  2.976     0.7039E-3
  2.977     0.6937E-3
  2.979     0.6839E-3
  2.981     0.6744E-3
  2.983     0.6652E-3
  2.985     0.6562E-3
  2.986     0.6476E-3
  2.988     0.6393E-3
  2.990     0.6312E-3
  2.992     0.6233E-3
  2.994     0.6157E-3
  2.996     0.6083E-3
  2.997     0.6011E-3
  2.999     0.5942E-3
  3.001     0.5874E-3
  3.003     0.5808E-3
  3.005     0.5744E-3
  3.006     0.5682E-3
  3.008     0.5621E-3
  3.010     0.5562E-3
  3.012     0.5504E-3
  3.014     0.5448E-3
  3.015     0.5393E-3
  3.017     0.5340E-3
  3.019     0.5288E-3
  3.021     0.5237E-3
  3.023     0.5187E-3
  3.025     0.5139E-3
  3.026     0.5092E-3
  3.028     0.5045E-3
  3.030     0.5000E-3
  3.032     0.4956E-3
  3.034     0.4913E-3
  3.035     0.4870E-3
  3.037     0.4829E-3
  3.039     0.4789E-3
  3.041     0.4749E-3
  3.043     0.4710E-3
  3.044     0.4672E-3
  3.046     0.4635E-3
  3.048     0.4598E-3
  3.050     0.4562E-3
  3.052     0.4527E-3
  3.054     0.4492E-3
  3.055     0.4458E-3
  3.057     0.4425E-3
  3.059     0.4392E-3
  3.061     0.4360E-3
  3.063     0.4329E-3
  3.064     0.4298E-3
  3.066     0.4268E-3
  3.068     0.4238E-3
  3.070     0.4208E-3
  3.072     0.4179E-3
  3.073     0.4151E-3
  3.075     0.4123E-3
  3.077     0.4096E-3
  3.079     0.4069E-3
  3.081     0.4042E-3
  3.083     0.4016E-3
  3.084     0.3990E-3
  3.086     0.3965E-3
  3.088     0.3940E-3
  3.090     0.3915E-3
  3.092     0.3891E-3
  3.093     0.3867E-3
  3.095     0.3843E-3
  3.097     0.3820E-3
  3.099     0.3797E-3
  3.101     0.3775E-3
  3.102     0.3752E-3
  3.104     0.3730E-3
  3.106     0.3709E-3
  3.108     0.3687E-3
  3.110     0.3666E-3
  3.112     0.3646E-3
  3.113     0.3625E-3
  3.115     0.3605E-3
  3.117     0.3585E-3
  3.119     0.3565E-3
  3.121     0.3546E-3
  3.122     0.3526E-3
  3.124     0.3507E-3
  3.126     0.3489E-3
  3.128     0.3470E-3
  3.130     0.3452E-3
  3.131     0.3434E-3
  3.133     0.3416E-3
  3.135     0.3398E-3
  3.137     0.3381E-3
  3.139     0.3363E-3
  3.141     0.3346E-3
  3.142     0.3330E-3
  3.144     0.3313E-3
  3.146     0.3296E-3
  3.148     0.3280E-3
  3.150     0.3264E-3
  3.151     0.3248E-3
  3.153     0.3232E-3
  3.155     0.3216E-3
  3.157     0.3201E-3
  3.159     0.3186E-3
  3.160     0.3171E-3
  3.162     0.3156E-3
  3.164     0.3141E-3
  3.166     0.3126E-3
  3.168     0.3112E-3
  3.170     0.3097E-3
  3.171     0.3083E-3
  3.173     0.3069E-3
  3.175     0.3055E-3
  3.177     0.3041E-3
  3.179     0.3027E-3
  3.180     0.3014E-3
  3.182     0.3000E-3
  3.184     0.2987E-3
  3.186     0.2974E-3
  3.188     0.2961E-3
  3.190     0.2948E-3
  3.191     0.2935E-3
  3.193     0.2922E-3
  3.195     0.2909E-3
  3.197     0.2897E-3
  3.199     0.2885E-3
  3.200     0.2872E-3
  3.202     0.2860E-3
  3.204     0.2848E-3
  3.206     0.2836E-3
  3.208     0.2824E-3
  3.209     0.2813E-3
  3.211     0.2801E-3
  3.213     0.2789E-3
  3.215     0.2778E-3
  3.217     0.2766E-3
  3.219     0.2755E-3
  3.220     0.2744E-3
  3.222     0.2733E-3
  3.224     0.2722E-3
  3.226     0.2711E-3
  3.228     0.2700E-3
  3.229     0.2689E-3
  3.231     0.2679E-3
  3.233     0.2668E-3
  3.235     0.2658E-3
  3.237     0.2647E-3
  3.238     0.2637E-3
  3.240     0.2627E-3
  3.242     0.2617E-3
  3.244     0.2606E-3
  3.246     0.2596E-3
  3.248     0.2586E-3
  3.249     0.2577E-3
  3.251     0.2567E-3
  3.253     0.2557E-3
  3.255     0.2547E-3
  3.257     0.2538E-3
  3.258     0.2528E-3
  3.260     0.2519E-3
  3.262     0.2509E-3
  3.264     0.2500E-3
  3.266     0.2491E-3
  3.267     0.2482E-3
  3.269     0.2473E-3
  3.271     0.2464E-3
  3.273     0.2455E-3
  3.275     0.2446E-3
  3.277     0.2437E-3
  3.278     0.2428E-3
  3.280     0.2419E-3
  3.282     0.2410E-3
  3.284     0.2402E-3
  3.286     0.2393E-3
  3.287     0.2385E-3
  3.289     0.2376E-3
  3.291     0.2368E-3
  3.293     0.2360E-3
  3.295     0.2351E-3
  3.296     0.2343E-3
  3.298     0.2335E-3
  3.300     0.2327E-3
  3.302     0.2319E-3
  3.304     0.2311E-3
  3.306     0.2303E-3
  3.307     0.2295E-3
  3.309     0.2287E-3
  3.311     0.2279E-3
  3.313     0.2271E-3
  3.315     0.2263E-3
  3.316     0.2256E-3
  3.318     0.2248E-3
  3.320     0.2240E-3
  3.322     0.2233E-3
  3.324     0.2225E-3
  3.325     0.2218E-3
  3.327     0.2211E-3
  3.329     0.2203E-3
  3.331     0.2196E-3
  3.333     0.2189E-3
  3.335     0.2181E-3
  3.336     0.2174E-3
  3.338     0.2167E-3
  3.340     0.2160E-3
# 
# 06/19/2019 at 14:22 YPP @ br018.pvt.bridges.psc.edu [start]
# 06/19/2019 at 14:22                                 [end]
#  
# Timing   [Min/Max/Average]: 02s/02s/02s
#
# .-Input file : amp.in
# | excitons                     # [R] Excitons
# | amplitude                    # [R] Amplitude
# | BoseTemp=  0.02585     eV    # Bosonic Temperature
# | States= "1 - 20"             # Index of the BS state(s)
# | #DipWeight                   #  Weight the contribution to the exciton WFs with the dipoles
# | Degen_Step=0.1000E-4   eV    # Maximum energy separation of two degenerate states
