#  __      __   ______   __       __  _______    ______     
# |  \    /  \ /      \ |  \     /  \|       \  /      \    
#  \$$\  /  $$|  $$$$$$\| $$\   /  $$| $$$$$$$\|  $$$$$$\   
#   \$$\/  $$ | $$__| $$| $$$\ /  $$$| $$__/ $$| $$  | $$   
#    \$$  $$  | $$    $$| $$$$\  $$$$| $$    $$| $$  | $$   
#     \$$$$   | $$$$$$$$| $$\$$ $$ $$| $$$$$$$\| $$  | $$   
#     | $$    | $$  | $$| $$ \$$$| $$| $$__/ $$| $$__/ $$   
#     | $$    | $$  | $$| $$  \$ | $$| $$    $$ \$$    $$   
#      \$$     \$$   \$$ \$$      \$$ \$$$$$$$   \$$$$$$    
#                                                           
#              GPL Version 4.1.4 Revision 76                
#                        MPI Build                          
#                http://www.yambo-code.org                  
#
# BSK|Identifier              :7677
#    |Dimension               :3278
#    |Bands                   :534 - 614
#    |Exchange           [res]: yes
#    |Correlation        [res]: no
#    |Kernel`s coupling       : no
#    |Exchange           [cpl]: no
#    |Correlation        [cpl]: no
#    |W interaction is bare   : no
#    |ALDA kernel in R-space  : no
#    |RL vectors    [exchange]:55207
#    |E/h energy range    [ev]:-1.000000 - -1.000000
#    |Coupling range     [o/o]: 100.0000 -  100.0000
#
# Electron-Hole pairs that contributes to Excitonic State 4 more than 5%
#
#  E    [eV]  Amplitude
#  
  2.329     0.5092E-3
  2.330     0.5115E-3
  2.332     0.5138E-3
  2.333     0.5161E-3
  2.334     0.5184E-3
  2.335     0.5208E-3
  2.336     0.5231E-3
  2.337     0.5255E-3
  2.338     0.5279E-3
  2.339     0.5303E-3
  2.341     0.5327E-3
  2.342     0.5351E-3
  2.343     0.5376E-3
  2.344     0.5400E-3
  2.345     0.5425E-3
  2.346     0.5450E-3
  2.347     0.5475E-3
  2.348     0.5501E-3
  2.349     0.5526E-3
  2.351     0.5552E-3
  2.352     0.5578E-3
  2.353     0.5604E-3
  2.354     0.5630E-3
  2.355     0.5657E-3
  2.356     0.5683E-3
  2.357     0.5710E-3
  2.358     0.5737E-3
  2.360     0.5764E-3
  2.361     0.5792E-3
  2.362     0.5819E-3
  2.363     0.5847E-3
  2.364     0.5875E-3
  2.365     0.5903E-3
  2.366     0.5932E-3
  2.367     0.5960E-3
  2.368     0.5989E-3
  2.370     0.6018E-3
  2.371     0.6047E-3
  2.372     0.6077E-3
  2.373     0.6107E-3
  2.374     0.6136E-3
  2.375     0.6167E-3
  2.376     0.6197E-3
  2.377     0.6227E-3
  2.379     0.6258E-3
  2.380     0.6289E-3
  2.381     0.6320E-3
  2.382     0.6352E-3
  2.383     0.6384E-3
  2.384     0.6415E-3
  2.385     0.6448E-3
  2.386     0.6480E-3
  2.387     0.6513E-3
  2.389     0.6546E-3
  2.390     0.6579E-3
  2.391     0.6612E-3
  2.392     0.6646E-3
  2.393     0.6680E-3
  2.394     0.6714E-3
  2.395     0.6749E-3
  2.396     0.6783E-3
  2.398     0.6818E-3
  2.399     0.6853E-3
  2.400     0.6889E-3
  2.401     0.6925E-3
  2.402     0.6961E-3
  2.403     0.6997E-3
  2.404     0.7034E-3
  2.405     0.7071E-3
  2.406     0.7108E-3
  2.408     0.7146E-3
  2.409     0.7184E-3
  2.410     0.7222E-3
  2.411     0.7260E-3
  2.412     0.7299E-3
  2.413     0.7338E-3
  2.414     0.7377E-3
  2.415     0.7417E-3
  2.417     0.7457E-3
  2.418     0.7497E-3
  2.419     0.7538E-3
  2.420     0.7579E-3
  2.421     0.7620E-3
  2.422     0.7662E-3
  2.423     0.7704E-3
  2.424     0.7746E-3
  2.425     0.7789E-3
  2.427     0.7832E-3
  2.428     0.7876E-3
  2.429     0.7919E-3
  2.430     0.7964E-3
  2.431     0.8008E-3
  2.432     0.8053E-3
  2.433     0.8098E-3
  2.434     0.8144E-3
  2.436     0.8190E-3
  2.437     0.8236E-3
  2.438     0.8283E-3
  2.439     0.8331E-3
  2.440     0.8378E-3
  2.441     0.8426E-3
  2.442     0.8475E-3
  2.443     0.8524E-3
  2.444     0.8573E-3
  2.446     0.8623E-3
  2.447     0.8673E-3
  2.448     0.8724E-3
  2.449     0.8775E-3
  2.450     0.8826E-3
  2.451     0.8878E-3
  2.452     0.8931E-3
  2.453     0.8983E-3
  2.454     0.9037E-3
  2.456     0.9091E-3
  2.457     0.9145E-3
  2.458     0.9200E-3
  2.459     0.9255E-3
  2.460     0.9311E-3
  2.461     0.9367E-3
  2.462     0.9424E-3
  2.463     0.9481E-3
  2.465     0.9539E-3
  2.466     0.9598E-3
  2.467     0.9657E-3
  2.468     0.9716E-3
  2.469     0.9776E-3
  2.470     0.9837E-3
  2.471     0.9898E-3
  2.472     0.9960E-3
  2.473     0.1002E-2
  2.475     0.1008E-2
  2.476     0.1015E-2
  2.477     0.1021E-2
  2.478     0.1028E-2
  2.479     0.1034E-2
  2.480     0.1041E-2
  2.481     0.1048E-2
  2.482     0.1054E-2
  2.484     0.1061E-2
  2.485     0.1068E-2
  2.486     0.1075E-2
  2.487     0.1082E-2
  2.488     0.1089E-2
  2.489     0.1096E-2
  2.490     0.1103E-2
  2.491     0.1110E-2
  2.492     0.1118E-2
  2.494     0.1125E-2
  2.495     0.1133E-2
  2.496     0.1140E-2
  2.497     0.1148E-2
  2.498     0.1156E-2
  2.499     0.1163E-2
  2.500     0.1171E-2
  2.501     0.1179E-2
  2.503     0.1187E-2
  2.504     0.1195E-2
  2.505     0.1204E-2
  2.506     0.1212E-2
  2.507     0.1220E-2
  2.508     0.1229E-2
  2.509     0.1237E-2
  2.510     0.1246E-2
  2.511     0.1255E-2
  2.513     0.1263E-2
  2.514     0.1272E-2
  2.515     0.1281E-2
  2.516     0.1290E-2
  2.517     0.1300E-2
  2.518     0.1309E-2
  2.519     0.1318E-2
  2.520     0.1328E-2
  2.522     0.1337E-2
  2.523     0.1347E-2
  2.524     0.1357E-2
  2.525     0.1367E-2
  2.526     0.1377E-2
  2.527     0.1387E-2
  2.528     0.1397E-2
  2.529     0.1408E-2
  2.530     0.1418E-2
  2.532     0.1429E-2
  2.533     0.1439E-2
  2.534     0.1450E-2
  2.535     0.1461E-2
  2.536     0.1472E-2
  2.537     0.1484E-2
  2.538     0.1495E-2
  2.539     0.1506E-2
  2.541     0.1518E-2
  2.542     0.1530E-2
  2.543     0.1542E-2
  2.544     0.1554E-2
  2.545     0.1566E-2
  2.546     0.1578E-2
  2.547     0.1591E-2
  2.548     0.1603E-2
  2.549     0.1616E-2
  2.551     0.1629E-2
  2.552     0.1642E-2
  2.553     0.1655E-2
  2.554     0.1669E-2
  2.555     0.1682E-2
  2.556     0.1696E-2
  2.557     0.1710E-2
  2.558     0.1724E-2
  2.560     0.1738E-2
  2.561     0.1752E-2
  2.562     0.1767E-2
  2.563     0.1782E-2
  2.564     0.1797E-2
  2.565     0.1812E-2
  2.566     0.1827E-2
  2.567     0.1843E-2
  2.568     0.1858E-2
  2.570     0.1874E-2
  2.571     0.1890E-2
  2.572     0.1907E-2
  2.573     0.1923E-2
  2.574     0.1940E-2
  2.575     0.1957E-2
  2.576     0.1974E-2
  2.577     0.1992E-2
  2.579     0.2009E-2
  2.580     0.2027E-2
  2.581     0.2045E-2
  2.582     0.2064E-2
  2.583     0.2082E-2
  2.584     0.2101E-2
  2.585     0.2120E-2
  2.586     0.2140E-2
  2.587     0.2160E-2
  2.589     0.2179E-2
  2.590     0.2200E-2
  2.591     0.2220E-2
  2.592     0.2241E-2
  2.593     0.2262E-2
  2.594     0.2284E-2
  2.595     0.2305E-2
  2.596     0.2327E-2
  2.598     0.2350E-2
  2.599     0.2372E-2
  2.600     0.2395E-2
  2.601     0.2419E-2
  2.602     0.2442E-2
  2.603     0.2466E-2
  2.604     0.2491E-2
  2.605     0.2515E-2
  2.606     0.2540E-2
  2.608     0.2566E-2
  2.609     0.2592E-2
    2.6098     0.0026
    2.6109     0.0026
    2.6120     0.0027
    2.6131     0.0027
    2.6143     0.0027
    2.6154     0.0028
    2.6165     0.0028
    2.6176     0.0028
    2.6187     0.0028
    2.6198     0.0029
    2.6210     0.0029
    2.6221     0.0029
    2.6232     0.0030
    2.6243     0.0030
    2.6254     0.0030
    2.6265     0.0031
    2.6277     0.0031
    2.6288     0.0031
    2.6299     0.0032
    2.6310     0.0032
    2.6321     0.0032
    2.6333     0.0033
    2.6344     0.0033
    2.6355     0.0034
    2.6366     0.0034
    2.6377     0.0034
    2.6388     0.0035
    2.6400     0.0035
    2.6411     0.0036
    2.6422     0.0036
    2.6433     0.0036
    2.6444     0.0037
    2.6455     0.0037
    2.6467     0.0038
    2.6478     0.0038
    2.6489     0.0039
    2.6500     0.0039
    2.6511     0.0040
    2.6522     0.0040
    2.6534     0.0041
    2.6545     0.0041
    2.6556     0.0042
    2.6567     0.0042
    2.6578     0.0043
    2.6589     0.0043
    2.6601     0.0044
    2.6612     0.0044
    2.6623     0.0045
    2.6634     0.0046
    2.6645     0.0046
    2.6657     0.0047
    2.6668     0.0048
    2.6679     0.0048
    2.6690     0.0049
    2.6701     0.0050
    2.6712     0.0050
    2.6724     0.0051
    2.6735     0.0052
    2.6746     0.0052
    2.6757     0.0053
    2.6768     0.0054
    2.6779     0.0055
    2.6791     0.0056
    2.6802     0.0056
    2.6813     0.0057
    2.6824     0.0058
    2.6835     0.0059
    2.6846     0.0060
    2.6858     0.0061
    2.6869     0.0062
    2.6880     0.0063
    2.6891     0.0064
    2.6902     0.0065
    2.6913     0.0066
    2.6925     0.0067
    2.6936     0.0068
    2.6947     0.0069
    2.6958     0.0070
    2.6969     0.0071
    2.6981     0.0073
    2.6992     0.0074
    2.7003     0.0075
    2.7014     0.0076
    2.7025     0.0078
    2.7036     0.0079
    2.7048     0.0080
    2.7059     0.0082
    2.7070     0.0083
    2.7081     0.0085
    2.7092     0.0087
    2.7103     0.0088
    2.7115     0.0090
    2.7126     0.0091
    2.7137     0.0093
    2.7148     0.0095
    2.7159     0.0097
    2.7170     0.0099
   2.71816    0.01008
   2.71928    0.01028
   2.72040    0.01049
   2.72151    0.01071
   2.72263    0.01093
   2.72375    0.01116
   2.72486    0.01139
   2.72598    0.01164
   2.72710    0.01189
   2.72822    0.01215
   2.72933    0.01242
   2.73045    0.01269
   2.73157    0.01298
   2.73268    0.01328
   2.73380    0.01359
   2.73492    0.01390
   2.73604    0.01423
   2.73715    0.01457
   2.73827    0.01493
   2.73939    0.01529
   2.74051    0.01567
   2.74162    0.01607
   2.74274    0.01648
   2.74386    0.01690
   2.74497    0.01734
   2.74609    0.01780
   2.74721    0.01828
   2.74833    0.01877
   2.74944    0.01929
   2.75056    0.01983
   2.75168    0.02039
   2.75279    0.02098
   2.75391    0.02159
   2.75503    0.02222
   2.75615    0.02289
   2.75726    0.02359
   2.75838    0.02431
   2.75950    0.02508
   2.76062    0.02588
   2.76173    0.02671
   2.76285    0.02759
   2.76397    0.02851
   2.76508    0.02948
   2.76620    0.03050
   2.76732    0.03157
   2.76844    0.03270
   2.76955    0.03388
   2.77067    0.03514
   2.77179    0.03646
   2.77290    0.03786
   2.77402    0.03934
   2.77514    0.04091
   2.77626    0.04257
   2.77737    0.04434
   2.77849    0.04621
   2.77961    0.04820
   2.78073    0.05033
   2.78184    0.05259
   2.78296    0.05501
   2.78408    0.05760
   2.78519    0.06036
   2.78631    0.06333
   2.78743    0.06652
   2.78855    0.06995
   2.78966    0.07364
   2.79078    0.07763
   2.79190    0.08193
   2.79301    0.08660
   2.79413    0.09166
   2.79525    0.09717
  2.796366   0.103161
  2.797483   0.109704
  2.798601   0.116863
  2.799718   0.124713
  2.800835   0.133336
  2.801952   0.142837
  2.803070   0.153325
  2.804187   0.164935
  2.805304   0.177814
  2.806421   0.192141
  2.807539   0.208113
  2.808656   0.225958
  2.809773   0.245945
  2.810890   0.268365
  2.812007   0.293563
  2.813124   0.321900
  2.814242   0.353788
  2.815359   0.389634
  2.816476   0.429857
  2.817594   0.474805
  2.818711   0.524695
  2.819828   0.579537
  2.820945   0.638925
  2.822062   0.701924
  2.823179   0.766793
  2.824297   0.830858
  2.825414   0.890511
  2.826531   0.941363
  2.827648   0.978884
  2.828766   0.999192
  2.829883   1.000000
  2.831000   0.981215
  2.832117   0.944970
  2.833235   0.895029
  2.834352   0.835937
  2.835469   0.772081
  2.836586   0.707173
  2.837703   0.643969
  2.838821   0.584245
  2.839938   0.529035
  2.841055   0.478743
  2.842172   0.433420
  2.843289   0.392838
  2.844407   0.356658
  2.845524   0.324482
  2.846641   0.295880
  2.847758   0.270459
  2.848876   0.247835
  2.849993   0.227678
  2.851110   0.209679
  2.852227   0.193576
  2.853344   0.179140
  2.854462   0.166161
  2.855579   0.154469
  2.856696   0.143907
  2.857813   0.134345
  2.858931   0.125668
  2.860048   0.117773
  2.861165   0.110577
  2.862282   0.104001
   2.86340    0.09798
   2.86452    0.09245
   2.86563    0.08737
   2.86675    0.08269
   2.86787    0.07838
   2.86899    0.07438
   2.87010    0.07069
   2.87122    0.06726
   2.87234    0.06407
   2.87345    0.06111
   2.87457    0.05834
   2.87569    0.05577
   2.87681    0.05336
   2.87792    0.05111
   2.87904    0.04900
   2.88016    0.04702
   2.88127    0.04517
   2.88239    0.04342
   2.88351    0.04178
   2.88463    0.04024
   2.88574    0.03879
   2.88686    0.03742
   2.88798    0.03612
   2.88910    0.03490
   2.89021    0.03375
   2.89133    0.03266
   2.89245    0.03163
   2.89356    0.03066
   2.89468    0.02974
   2.89580    0.02887
   2.89692    0.02804
   2.89803    0.02727
   2.89915    0.02653
   2.90027    0.02584
   2.90138    0.02518
   2.90250    0.02456
   2.90362    0.02398
   2.90474    0.02343
   2.90585    0.02292
   2.90697    0.02243
   2.90809    0.02199
   2.90921    0.02157
   2.91032    0.02118
   2.91144    0.02083
   2.91256    0.02051
   2.91367    0.02022
   2.91479    0.01997
   2.91591    0.01975
   2.91703    0.01956
   2.91814    0.01941
   2.91926    0.01930
   2.92038    0.01924
   2.92149    0.01922
   2.92261    0.01924
   2.92373    0.01932
   2.92485    0.01946
   2.92596    0.01966
   2.92708    0.01994
   2.92820    0.02029
   2.92932    0.02074
   2.93043    0.02128
   2.93155    0.02193
   2.93267    0.02270
   2.93378    0.02361
   2.93490    0.02466
   2.93602    0.02585
   2.93714    0.02719
   2.93825    0.02867
   2.93937    0.03025
   2.94049    0.03189
   2.94160    0.03350
   2.94272    0.03499
   2.94384    0.03621
   2.94496    0.03706
   2.94607    0.03742
   2.94719    0.03723
   2.94831    0.03648
   2.94943    0.03526
   2.95054    0.03366
   2.95166    0.03182
   2.95278    0.02986
   2.95389    0.02788
   2.95501    0.02595
   2.95613    0.02413
   2.95725    0.02245
   2.95836    0.02090
   2.95948    0.01950
   2.96060    0.01824
   2.96171    0.01711
   2.96283    0.01608
   2.96395    0.01517
   2.96507    0.01434
   2.96618    0.01360
   2.96730    0.01293
   2.96842    0.01232
   2.96954    0.01176
   2.97065    0.01126
   2.97177    0.01080
   2.97289    0.01037
    2.9740     0.0100
    2.9751     0.0096
    2.9762     0.0093
    2.9774     0.0090
    2.9785     0.0087
    2.9796     0.0084
    2.9807     0.0082
    2.9818     0.0079
    2.9829     0.0077
    2.9841     0.0075
    2.9852     0.0073
    2.9863     0.0071
    2.9874     0.0070
    2.9885     0.0068
    2.9896     0.0066
    2.9908     0.0065
    2.9919     0.0063
    2.9930     0.0062
    2.9941     0.0061
    2.9952     0.0059
    2.9963     0.0058
    2.9975     0.0057
    2.9986     0.0056
    2.9997     0.0055
    3.0008     0.0054
    3.0019     0.0053
    3.0031     0.0052
    3.0042     0.0051
    3.0053     0.0050
    3.0064     0.0049
    3.0075     0.0048
    3.0086     0.0048
    3.0098     0.0047
    3.0109     0.0046
    3.0120     0.0045
    3.0131     0.0045
    3.0142     0.0044
    3.0153     0.0043
    3.0165     0.0043
    3.0176     0.0042
    3.0187     0.0041
    3.0198     0.0041
    3.0209     0.0040
    3.0220     0.0040
    3.0232     0.0039
    3.0243     0.0039
    3.0254     0.0038
    3.0265     0.0038
    3.0276     0.0037
    3.0287     0.0037
    3.0299     0.0036
    3.0310     0.0036
    3.0321     0.0035
    3.0332     0.0035
    3.0343     0.0034
    3.0355     0.0034
    3.0366     0.0033
    3.0377     0.0033
    3.0388     0.0033
    3.0399     0.0032
    3.0410     0.0032
    3.0422     0.0031
    3.0433     0.0031
    3.0444     0.0031
  3.046     0.3027E-2
  3.047     0.2992E-2
  3.048     0.2958E-2
  3.049     0.2924E-2
  3.050     0.2890E-2
  3.051     0.2858E-2
  3.052     0.2826E-2
  3.053     0.2795E-2
  3.054     0.2764E-2
  3.056     0.2733E-2
  3.057     0.2704E-2
  3.058     0.2674E-2
  3.059     0.2646E-2
  3.060     0.2617E-2
  3.061     0.2590E-2
  3.062     0.2562E-2
  3.063     0.2536E-2
  3.064     0.2509E-2
  3.066     0.2483E-2
  3.067     0.2458E-2
  3.068     0.2433E-2
  3.069     0.2408E-2
  3.070     0.2384E-2
  3.071     0.2360E-2
  3.072     0.2336E-2
  3.073     0.2313E-2
  3.075     0.2291E-2
  3.076     0.2268E-2
  3.077     0.2246E-2
  3.078     0.2224E-2
  3.079     0.2203E-2
  3.080     0.2182E-2
  3.081     0.2161E-2
  3.082     0.2141E-2
  3.083     0.2120E-2
  3.085     0.2101E-2
  3.086     0.2081E-2
  3.087     0.2062E-2
  3.088     0.2043E-2
  3.089     0.2024E-2
  3.090     0.2006E-2
  3.091     0.1987E-2
  3.092     0.1969E-2
  3.094     0.1952E-2
  3.095     0.1934E-2
  3.096     0.1917E-2
  3.097     0.1900E-2
  3.098     0.1883E-2
  3.099     0.1867E-2
  3.100     0.1851E-2
  3.101     0.1835E-2
  3.102     0.1819E-2
  3.104     0.1803E-2
  3.105     0.1788E-2
  3.106     0.1772E-2
  3.107     0.1757E-2
  3.108     0.1743E-2
  3.109     0.1728E-2
  3.110     0.1713E-2
  3.111     0.1699E-2
  3.113     0.1685E-2
  3.114     0.1671E-2
  3.115     0.1658E-2
  3.116     0.1644E-2
  3.117     0.1631E-2
  3.118     0.1617E-2
  3.119     0.1604E-2
  3.120     0.1591E-2
  3.121     0.1579E-2
  3.123     0.1566E-2
  3.124     0.1554E-2
  3.125     0.1541E-2
  3.126     0.1529E-2
  3.127     0.1517E-2
  3.128     0.1506E-2
  3.129     0.1494E-2
  3.130     0.1482E-2
  3.132     0.1471E-2
  3.133     0.1460E-2
  3.134     0.1449E-2
  3.135     0.1438E-2
  3.136     0.1427E-2
  3.137     0.1416E-2
  3.138     0.1405E-2
  3.139     0.1395E-2
  3.140     0.1384E-2
  3.142     0.1374E-2
  3.143     0.1364E-2
  3.144     0.1354E-2
  3.145     0.1344E-2
  3.146     0.1334E-2
  3.147     0.1324E-2
  3.148     0.1315E-2
  3.149     0.1305E-2
  3.151     0.1296E-2
  3.152     0.1287E-2
  3.153     0.1277E-2
  3.154     0.1268E-2
  3.155     0.1259E-2
  3.156     0.1250E-2
  3.157     0.1242E-2
  3.158     0.1233E-2
  3.159     0.1224E-2
  3.161     0.1216E-2
  3.162     0.1207E-2
  3.163     0.1199E-2
  3.164     0.1191E-2
  3.165     0.1183E-2
  3.166     0.1174E-2
  3.167     0.1166E-2
  3.168     0.1159E-2
  3.170     0.1151E-2
  3.171     0.1143E-2
  3.172     0.1135E-2
  3.173     0.1128E-2
  3.174     0.1120E-2
  3.175     0.1113E-2
  3.176     0.1105E-2
  3.177     0.1098E-2
  3.178     0.1091E-2
  3.180     0.1084E-2
  3.181     0.1077E-2
  3.182     0.1070E-2
  3.183     0.1063E-2
  3.184     0.1056E-2
  3.185     0.1049E-2
  3.186     0.1042E-2
  3.187     0.1036E-2
  3.189     0.1029E-2
  3.190     0.1022E-2
  3.191     0.1016E-2
  3.192     0.1010E-2
  3.193     0.1003E-2
  3.194     0.9969E-3
  3.195     0.9906E-3
  3.196     0.9844E-3
  3.197     0.9783E-3
  3.199     0.9723E-3
  3.200     0.9663E-3
  3.201     0.9603E-3
  3.202     0.9544E-3
  3.203     0.9486E-3
  3.204     0.9428E-3
  3.205     0.9370E-3
  3.206     0.9314E-3
  3.208     0.9257E-3
  3.209     0.9202E-3
  3.210     0.9146E-3
  3.211     0.9092E-3
  3.212     0.9037E-3
  3.213     0.8984E-3
  3.214     0.8930E-3
  3.215     0.8877E-3
  3.216     0.8825E-3
  3.218     0.8773E-3
  3.219     0.8722E-3
  3.220     0.8671E-3
  3.221     0.8620E-3
  3.222     0.8570E-3
  3.223     0.8521E-3
  3.224     0.8471E-3
  3.225     0.8423E-3
  3.226     0.8374E-3
  3.228     0.8326E-3
  3.229     0.8279E-3
  3.230     0.8232E-3
  3.231     0.8185E-3
  3.232     0.8139E-3
  3.233     0.8093E-3
  3.234     0.8047E-3
  3.235     0.8002E-3
  3.237     0.7957E-3
  3.238     0.7913E-3
  3.239     0.7869E-3
  3.240     0.7825E-3
  3.241     0.7782E-3
  3.242     0.7739E-3
  3.243     0.7697E-3
  3.244     0.7654E-3
  3.245     0.7613E-3
  3.247     0.7571E-3
  3.248     0.7530E-3
  3.249     0.7489E-3
  3.250     0.7449E-3
  3.251     0.7408E-3
  3.252     0.7369E-3
  3.253     0.7329E-3
  3.254     0.7290E-3
  3.256     0.7251E-3
  3.257     0.7212E-3
  3.258     0.7174E-3
  3.259     0.7136E-3
  3.260     0.7099E-3
  3.261     0.7061E-3
  3.262     0.7024E-3
  3.263     0.6987E-3
  3.264     0.6951E-3
  3.266     0.6915E-3
  3.267     0.6879E-3
  3.268     0.6843E-3
  3.269     0.6808E-3
  3.270     0.6773E-3
  3.271     0.6738E-3
  3.272     0.6703E-3
  3.273     0.6669E-3
  3.275     0.6635E-3
  3.276     0.6601E-3
  3.277     0.6568E-3
  3.278     0.6535E-3
  3.279     0.6502E-3
  3.280     0.6469E-3
  3.281     0.6436E-3
  3.282     0.6404E-3
  3.283     0.6372E-3
  3.285     0.6341E-3
  3.286     0.6309E-3
  3.287     0.6278E-3
  3.288     0.6247E-3
  3.289     0.6216E-3
  3.290     0.6185E-3
  3.291     0.6155E-3
  3.292     0.6125E-3
  3.294     0.6095E-3
  3.295     0.6065E-3
  3.296     0.6036E-3
  3.297     0.6006E-3
  3.298     0.5977E-3
  3.299     0.5949E-3
  3.300     0.5920E-3
  3.301     0.5892E-3
  3.302     0.5863E-3
  3.304     0.5835E-3
  3.305     0.5808E-3
  3.306     0.5780E-3
  3.307     0.5752E-3
  3.308     0.5725E-3
  3.309     0.5698E-3
  3.310     0.5671E-3
  3.311     0.5645E-3
  3.313     0.5618E-3
  3.314     0.5592E-3
  3.315     0.5566E-3
  3.316     0.5540E-3
  3.317     0.5514E-3
  3.318     0.5489E-3
  3.319     0.5463E-3
  3.320     0.5438E-3
  3.321     0.5413E-3
  3.323     0.5388E-3
  3.324     0.5364E-3
  3.325     0.5339E-3
  3.326     0.5315E-3
  3.327     0.5291E-3
  3.328     0.5267E-3
  3.329     0.5243E-3
  3.330     0.5219E-3
  3.332     0.5196E-3
  3.333     0.5172E-3
  3.334     0.5149E-3
  3.335     0.5126E-3
  3.336     0.5103E-3
  3.337     0.5081E-3
  3.338     0.5058E-3
  3.339     0.5036E-3
  3.340     0.5013E-3
  3.342     0.4991E-3
  3.343     0.4969E-3
  3.344     0.4947E-3
  3.345     0.4926E-3
  3.346     0.4904E-3
  3.347     0.4883E-3
  3.348     0.4861E-3
  3.349     0.4840E-3
  3.351     0.4819E-3
  3.352     0.4798E-3
  3.353     0.4778E-3
  3.354     0.4757E-3
  3.355     0.4737E-3
  3.356     0.4716E-3
  3.357     0.4696E-3
  3.358     0.4676E-3
  3.359     0.4656E-3
  3.361     0.4636E-3
  3.362     0.4617E-3
  3.363     0.4597E-3
  3.364     0.4578E-3
  3.365     0.4558E-3
  3.366     0.4539E-3
  3.367     0.4520E-3
  3.368     0.4501E-3
  3.369     0.4482E-3
  3.371     0.4464E-3
  3.372     0.4445E-3
  3.373     0.4427E-3
  3.374     0.4408E-3
  3.375     0.4390E-3
  3.376     0.4372E-3
  3.377     0.4354E-3
  3.378     0.4336E-3
  3.380     0.4318E-3
  3.381     0.4301E-3
  3.382     0.4283E-3
  3.383     0.4265E-3
  3.384     0.4248E-3
  3.385     0.4231E-3
  3.386     0.4214E-3
  3.387     0.4197E-3
  3.388     0.4180E-3
  3.390     0.4163E-3
  3.391     0.4146E-3
  3.392     0.4130E-3
  3.393     0.4113E-3
  3.394     0.4097E-3
  3.395     0.4080E-3
  3.396     0.4064E-3
  3.397     0.4048E-3
  3.399     0.4032E-3
  3.400     0.4016E-3
  3.401     0.4000E-3
  3.402     0.3984E-3
  3.403     0.3969E-3
  3.404     0.3953E-3
  3.405     0.3938E-3
  3.406     0.3922E-3
  3.407     0.3907E-3
  3.409     0.3892E-3
  3.410     0.3876E-3
  3.411     0.3861E-3
  3.412     0.3846E-3
  3.413     0.3832E-3
  3.414     0.3817E-3
  3.415     0.3802E-3
  3.416     0.3788E-3
  3.418     0.3773E-3
  3.419     0.3759E-3
  3.420     0.3744E-3
  3.421     0.3730E-3
  3.422     0.3716E-3
  3.423     0.3702E-3
  3.424     0.3688E-3
  3.425     0.3674E-3
  3.426     0.3660E-3
  3.428     0.3646E-3
  3.429     0.3632E-3
  3.430     0.3619E-3
  3.431     0.3605E-3
  3.432     0.3592E-3
  3.433     0.3578E-3
  3.434     0.3565E-3
  3.435     0.3552E-3
  3.437     0.3538E-3
  3.438     0.3525E-3
  3.439     0.3512E-3
  3.440     0.3499E-3
  3.441     0.3486E-3
  3.442     0.3474E-3
  3.443     0.3461E-3
  3.444     0.3448E-3
  3.445     0.3436E-3
# 
# 06/19/2019 at 14:22 YPP @ br018.pvt.bridges.psc.edu [start]
# 06/19/2019 at 14:22                                 [end]
#  
# Timing   [Min/Max/Average]: 02s/02s/02s
#
# .-Input file : amp.in
# | excitons                     # [R] Excitons
# | amplitude                    # [R] Amplitude
# | BoseTemp=  0.02585     eV    # Bosonic Temperature
# | States= "1 - 20"             # Index of the BS state(s)
# | #DipWeight                   #  Weight the contribution to the exciton WFs with the dipoles
# | Degen_Step=0.1000E-4   eV    # Maximum energy separation of two degenerate states
