#  __      __   ______   __       __  _______    ______     
# |  \    /  \ /      \ |  \     /  \|       \  /      \    
#  \$$\  /  $$|  $$$$$$\| $$\   /  $$| $$$$$$$\|  $$$$$$\   
#   \$$\/  $$ | $$__| $$| $$$\ /  $$$| $$__/ $$| $$  | $$   
#    \$$  $$  | $$    $$| $$$$\  $$$$| $$    $$| $$  | $$   
#     \$$$$   | $$$$$$$$| $$\$$ $$ $$| $$$$$$$\| $$  | $$   
#     | $$    | $$  | $$| $$ \$$$| $$| $$__/ $$| $$__/ $$   
#     | $$    | $$  | $$| $$  \$ | $$| $$    $$ \$$    $$   
#      \$$     \$$   \$$ \$$      \$$ \$$$$$$$   \$$$$$$    
#                                                           
#              GPL Version 4.1.4 Revision 76                
#                        MPI Build                          
#                http://www.yambo-code.org                  
#
# BSK|Identifier              :7677
#    |Dimension               :3278
#    |Bands                   :534 - 614
#    |Exchange           [res]: yes
#    |Correlation        [res]: no
#    |Kernel`s coupling       : no
#    |Exchange           [cpl]: no
#    |Correlation        [cpl]: no
#    |W interaction is bare   : no
#    |ALDA kernel in R-space  : no
#    |RL vectors    [exchange]:55207
#    |E/h energy range    [ev]:-1.000000 - -1.000000
#    |Coupling range     [o/o]: 100.0000 -  100.0000
#
# Electron-Hole pairs that contributes to Excitonic State 14 more than 5%
#
#  E    [eV]  Amplitude
#  
  2.458     0.4909E-3
  2.459     0.4929E-3
  2.460     0.4950E-3
  2.461     0.4970E-3
  2.462     0.4991E-3
  2.463     0.5012E-3
  2.464     0.5033E-3
  2.465     0.5055E-3
  2.466     0.5076E-3
  2.467     0.5097E-3
  2.468     0.5119E-3
  2.469     0.5141E-3
  2.470     0.5163E-3
  2.472     0.5185E-3
  2.473     0.5207E-3
  2.474     0.5229E-3
  2.475     0.5252E-3
  2.476     0.5274E-3
  2.477     0.5297E-3
  2.478     0.5320E-3
  2.479     0.5343E-3
  2.480     0.5366E-3
  2.481     0.5390E-3
  2.482     0.5413E-3
  2.483     0.5437E-3
  2.484     0.5461E-3
  2.485     0.5485E-3
  2.486     0.5509E-3
  2.487     0.5533E-3
  2.488     0.5558E-3
  2.489     0.5582E-3
  2.490     0.5607E-3
  2.491     0.5632E-3
  2.492     0.5657E-3
  2.493     0.5683E-3
  2.495     0.5708E-3
  2.496     0.5734E-3
  2.497     0.5760E-3
  2.498     0.5786E-3
  2.499     0.5812E-3
  2.500     0.5838E-3
  2.501     0.5865E-3
  2.502     0.5891E-3
  2.503     0.5918E-3
  2.504     0.5945E-3
  2.505     0.5973E-3
  2.506     0.6000E-3
  2.507     0.6028E-3
  2.508     0.6056E-3
  2.509     0.6084E-3
  2.510     0.6112E-3
  2.511     0.6140E-3
  2.512     0.6169E-3
  2.513     0.6198E-3
  2.514     0.6227E-3
  2.515     0.6256E-3
  2.516     0.6285E-3
  2.518     0.6315E-3
  2.519     0.6345E-3
  2.520     0.6375E-3
  2.521     0.6405E-3
  2.522     0.6436E-3
  2.523     0.6466E-3
  2.524     0.6497E-3
  2.525     0.6528E-3
  2.526     0.6560E-3
  2.527     0.6591E-3
  2.528     0.6623E-3
  2.529     0.6655E-3
  2.530     0.6688E-3
  2.531     0.6720E-3
  2.532     0.6753E-3
  2.533     0.6786E-3
  2.534     0.6819E-3
  2.535     0.6853E-3
  2.536     0.6887E-3
  2.537     0.6921E-3
  2.538     0.6955E-3
  2.540     0.6989E-3
  2.541     0.7024E-3
  2.542     0.7059E-3
  2.543     0.7094E-3
  2.544     0.7130E-3
  2.545     0.7166E-3
  2.546     0.7202E-3
  2.547     0.7238E-3
  2.548     0.7275E-3
  2.549     0.7312E-3
  2.550     0.7349E-3
  2.551     0.7386E-3
  2.552     0.7424E-3
  2.553     0.7462E-3
  2.554     0.7501E-3
  2.555     0.7539E-3
  2.556     0.7578E-3
  2.557     0.7618E-3
  2.558     0.7657E-3
  2.559     0.7697E-3
  2.560     0.7737E-3
  2.561     0.7778E-3
  2.563     0.7819E-3
  2.564     0.7860E-3
  2.565     0.7901E-3
  2.566     0.7943E-3
  2.567     0.7985E-3
  2.568     0.8028E-3
  2.569     0.8070E-3
  2.570     0.8113E-3
  2.571     0.8157E-3
  2.572     0.8201E-3
  2.573     0.8245E-3
  2.574     0.8290E-3
  2.575     0.8335E-3
  2.576     0.8380E-3
  2.577     0.8425E-3
  2.578     0.8472E-3
  2.579     0.8518E-3
  2.580     0.8565E-3
  2.581     0.8612E-3
  2.582     0.8660E-3
  2.583     0.8707E-3
  2.584     0.8756E-3
  2.586     0.8805E-3
  2.587     0.8854E-3
  2.588     0.8903E-3
  2.589     0.8953E-3
  2.590     0.9004E-3
  2.591     0.9055E-3
  2.592     0.9106E-3
  2.593     0.9158E-3
  2.594     0.9210E-3
  2.595     0.9263E-3
  2.596     0.9316E-3
  2.597     0.9369E-3
  2.598     0.9423E-3
  2.599     0.9478E-3
  2.600     0.9533E-3
  2.601     0.9588E-3
  2.602     0.9644E-3
  2.603     0.9700E-3
  2.604     0.9757E-3
  2.605     0.9815E-3
  2.606     0.9873E-3
  2.608     0.9931E-3
  2.609     0.9990E-3
  2.610     0.1005E-2
  2.611     0.1011E-2
  2.612     0.1017E-2
  2.613     0.1023E-2
  2.614     0.1029E-2
  2.615     0.1035E-2
  2.616     0.1042E-2
  2.617     0.1048E-2
  2.618     0.1054E-2
  2.619     0.1061E-2
  2.620     0.1067E-2
  2.621     0.1074E-2
  2.622     0.1081E-2
  2.623     0.1087E-2
  2.624     0.1094E-2
  2.625     0.1101E-2
  2.626     0.1108E-2
  2.627     0.1115E-2
  2.628     0.1122E-2
  2.629     0.1129E-2
  2.631     0.1136E-2
  2.632     0.1143E-2
  2.633     0.1150E-2
  2.634     0.1158E-2
  2.635     0.1165E-2
  2.636     0.1173E-2
  2.637     0.1180E-2
  2.638     0.1188E-2
  2.639     0.1196E-2
  2.640     0.1203E-2
  2.641     0.1211E-2
  2.642     0.1219E-2
  2.643     0.1227E-2
  2.644     0.1235E-2
  2.645     0.1244E-2
  2.646     0.1252E-2
  2.647     0.1260E-2
  2.648     0.1269E-2
  2.649     0.1277E-2
  2.650     0.1286E-2
  2.651     0.1294E-2
  2.652     0.1303E-2
  2.654     0.1312E-2
  2.655     0.1321E-2
  2.656     0.1330E-2
  2.657     0.1339E-2
  2.658     0.1348E-2
  2.659     0.1358E-2
  2.660     0.1367E-2
  2.661     0.1377E-2
  2.662     0.1386E-2
  2.663     0.1396E-2
  2.664     0.1406E-2
  2.665     0.1416E-2
  2.666     0.1426E-2
  2.667     0.1436E-2
  2.668     0.1446E-2
  2.669     0.1457E-2
  2.670     0.1467E-2
  2.671     0.1478E-2
  2.672     0.1488E-2
  2.673     0.1499E-2
  2.674     0.1510E-2
  2.675     0.1521E-2
  2.677     0.1533E-2
  2.678     0.1544E-2
  2.679     0.1555E-2
  2.680     0.1567E-2
  2.681     0.1579E-2
  2.682     0.1590E-2
  2.683     0.1602E-2
  2.684     0.1614E-2
  2.685     0.1627E-2
  2.686     0.1639E-2
  2.687     0.1652E-2
  2.688     0.1664E-2
  2.689     0.1677E-2
  2.690     0.1690E-2
  2.691     0.1703E-2
  2.692     0.1716E-2
  2.693     0.1730E-2
  2.694     0.1743E-2
  2.695     0.1757E-2
  2.696     0.1771E-2
  2.697     0.1785E-2
  2.699     0.1799E-2
  2.700     0.1814E-2
  2.701     0.1828E-2
  2.702     0.1843E-2
  2.703     0.1858E-2
  2.704     0.1873E-2
  2.705     0.1888E-2
  2.706     0.1904E-2
  2.707     0.1920E-2
  2.708     0.1935E-2
  2.709     0.1951E-2
  2.710     0.1968E-2
  2.711     0.1984E-2
  2.712     0.2001E-2
  2.713     0.2018E-2
  2.714     0.2035E-2
  2.715     0.2052E-2
  2.716     0.2070E-2
  2.717     0.2088E-2
  2.718     0.2106E-2
  2.719     0.2124E-2
  2.720     0.2142E-2
  2.722     0.2161E-2
  2.723     0.2180E-2
  2.724     0.2199E-2
  2.725     0.2219E-2
  2.726     0.2238E-2
  2.727     0.2258E-2
  2.728     0.2279E-2
  2.729     0.2299E-2
  2.730     0.2320E-2
  2.731     0.2341E-2
  2.732     0.2363E-2
  2.733     0.2384E-2
  2.734     0.2406E-2
  2.735     0.2429E-2
  2.736     0.2451E-2
  2.737     0.2474E-2
  2.738     0.2497E-2
  2.739     0.2521E-2
  2.740     0.2545E-2
  2.741     0.2569E-2
  2.742     0.2594E-2
  2.743     0.2619E-2
  2.745     0.2644E-2
  2.746     0.2670E-2
  2.747     0.2696E-2
  2.748     0.2722E-2
    2.7487     0.0027
    2.7498     0.0028
    2.7508     0.0028
    2.7519     0.0028
    2.7529     0.0029
    2.7540     0.0029
    2.7550     0.0029
    2.7560     0.0029
    2.7571     0.0030
    2.7581     0.0030
    2.7592     0.0030
    2.7602     0.0031
    2.7613     0.0031
    2.7623     0.0031
    2.7634     0.0032
    2.7644     0.0032
    2.7655     0.0032
    2.7665     0.0033
    2.7675     0.0033
    2.7686     0.0033
    2.7696     0.0034
    2.7707     0.0034
    2.7717     0.0035
    2.7728     0.0035
    2.7738     0.0035
    2.7749     0.0036
    2.7759     0.0036
    2.7770     0.0037
    2.7780     0.0037
    2.7791     0.0037
    2.7801     0.0038
    2.7811     0.0038
    2.7822     0.0039
    2.7832     0.0039
    2.7843     0.0040
    2.7853     0.0040
    2.7864     0.0041
    2.7874     0.0041
    2.7885     0.0042
    2.7895     0.0042
    2.7906     0.0043
    2.7916     0.0043
    2.7927     0.0044
    2.7937     0.0044
    2.7947     0.0045
    2.7958     0.0045
    2.7968     0.0046
    2.7979     0.0047
    2.7989     0.0047
    2.8000     0.0048
    2.8010     0.0048
    2.8021     0.0049
    2.8031     0.0050
    2.8042     0.0050
    2.8052     0.0051
    2.8063     0.0052
    2.8073     0.0052
    2.8083     0.0053
    2.8094     0.0054
    2.8104     0.0055
    2.8115     0.0055
    2.8125     0.0056
    2.8136     0.0057
    2.8146     0.0058
    2.8157     0.0059
    2.8167     0.0059
    2.8178     0.0060
    2.8188     0.0061
    2.8199     0.0062
    2.8209     0.0063
    2.8219     0.0064
    2.8230     0.0065
    2.8240     0.0066
    2.8251     0.0067
    2.8261     0.0068
    2.8272     0.0069
    2.8282     0.0070
    2.8293     0.0071
    2.8303     0.0072
    2.8314     0.0074
    2.8324     0.0075
    2.8334     0.0076
    2.8345     0.0077
    2.8355     0.0079
    2.8366     0.0080
    2.8376     0.0081
    2.8387     0.0083
    2.8397     0.0084
    2.8408     0.0086
    2.8418     0.0087
    2.8429     0.0089
    2.8439     0.0090
    2.8450     0.0092
    2.8460     0.0094
    2.8470     0.0095
    2.8481     0.0097
    2.8491     0.0099
   2.85019    0.01007
   2.85123    0.01027
   2.85228    0.01047
   2.85332    0.01067
   2.85437    0.01088
   2.85542    0.01110
   2.85646    0.01132
   2.85751    0.01155
   2.85855    0.01179
   2.85960    0.01203
   2.86065    0.01228
   2.86169    0.01254
   2.86274    0.01281
   2.86379    0.01309
   2.86483    0.01337
   2.86588    0.01367
   2.86692    0.01398
   2.86797    0.01429
   2.86902    0.01462
   2.87006    0.01496
   2.87111    0.01531
   2.87215    0.01567
   2.87320    0.01604
   2.87425    0.01643
   2.87529    0.01684
   2.87634    0.01726
   2.87738    0.01769
   2.87843    0.01814
   2.87948    0.01861
   2.88052    0.01910
   2.88157    0.01960
   2.88261    0.02013
   2.88366    0.02068
   2.88471    0.02125
   2.88575    0.02184
   2.88680    0.02246
   2.88784    0.02311
   2.88889    0.02378
   2.88994    0.02448
   2.89098    0.02522
   2.89203    0.02599
   2.89307    0.02680
   2.89412    0.02764
   2.89517    0.02852
   2.89621    0.02945
   2.89726    0.03042
   2.89830    0.03144
   2.89935    0.03252
   2.90040    0.03364
   2.90144    0.03483
   2.90249    0.03609
   2.90353    0.03741
   2.90458    0.03880
   2.90563    0.04027
   2.90667    0.04183
   2.90772    0.04348
   2.90876    0.04523
   2.90981    0.04708
   2.91086    0.04905
   2.91190    0.05115
   2.91295    0.05338
   2.91400    0.05576
   2.91504    0.05829
   2.91609    0.06101
   2.91713    0.06391
   2.91818    0.06703
   2.91923    0.07037
   2.92027    0.07397
   2.92132    0.07784
   2.92236    0.08202
   2.92341    0.08654
   2.92446    0.09143
   2.92550    0.09674
  2.926548   0.102506
  2.927594   0.108792
  2.928640   0.115653
  2.929686   0.123158
  2.930732   0.131387
  2.931778   0.140432
  2.932824   0.150397
  2.933870   0.161399
  2.934916   0.173580
  2.935962   0.187095
  2.937008   0.202129
  2.938054   0.218895
  2.939100   0.237633
  2.940146   0.258612
  2.941192   0.282151
  2.942238   0.308587
  2.943284   0.338309
  2.944330   0.371710
  2.945376   0.409208
  2.946422   0.451170
  2.947469   0.497905
  2.948514   0.549523
  2.949561   0.605874
  2.950607   0.666318
  2.951653   0.729608
  2.952699   0.793626
  2.953745   0.855373
  2.954791   0.910969
  2.955837   0.956125
  2.956883   0.986772
  2.957929   1.000000
  2.958975   0.994764
  2.960021   0.972194
  2.961067   0.935290
  2.962113   0.888115
  2.963159   0.834952
  2.964205   0.779519
  2.965251   0.724635
  2.966297   0.672104
  2.967343   0.622807
  2.968389   0.576959
  2.969435   0.534399
  2.970481   0.494777
  2.971528   0.457796
  2.972574   0.423277
  2.973619   0.391160
  2.974666   0.361470
  2.975712   0.334269
  2.976758   0.309587
  2.977804   0.287394
  2.978850   0.267627
  2.979896   0.250171
  2.980942   0.234897
  2.981988   0.221657
  2.983034   0.210313
  2.984080   0.200717
  2.985126   0.192737
  2.986172   0.186228
  2.987218   0.181042
  2.988264   0.176999
  2.989310   0.173894
  2.990356   0.171472
  2.991402   0.169444
  2.992448   0.167500
  2.993494   0.165353
  2.994540   0.162780
  2.995586   0.159669
  2.996633   0.156018
  2.997679   0.151923
  2.998724   0.147511
  2.999770   0.142894
  3.000817   0.138127
  3.001863   0.133200
  3.002909   0.128059
  3.003955   0.122648
  3.005001   0.116944
  3.006047   0.110988
  3.007093   0.104871
   3.00814    0.09873
   3.00919    0.09268
   3.01023    0.08687
   3.01128    0.08136
   3.01232    0.07621
   3.01337    0.07144
   3.01442    0.06706
   3.01546    0.06305
   3.01651    0.05939
   3.01755    0.05604
   3.01860    0.05299
   3.01965    0.05020
   3.02069    0.04764
   3.02174    0.04529
   3.02278    0.04313
   3.02383    0.04114
   3.02488    0.03930
   3.02592    0.03760
   3.02697    0.03602
   3.02801    0.03455
   3.02906    0.03317
   3.03011    0.03189
   3.03115    0.03069
   3.03220    0.02956
   3.03324    0.02850
   3.03429    0.02750
   3.03534    0.02656
   3.03638    0.02568
   3.03743    0.02484
   3.03847    0.02404
   3.03952    0.02329
   3.04057    0.02257
   3.04161    0.02189
   3.04266    0.02124
   3.04370    0.02062
   3.04475    0.02003
   3.04580    0.01947
   3.04684    0.01893
   3.04789    0.01842
   3.04893    0.01793
   3.04998    0.01746
   3.05103    0.01700
   3.05207    0.01657
   3.05312    0.01615
   3.05416    0.01575
   3.05521    0.01537
   3.05626    0.01500
   3.05730    0.01464
   3.05835    0.01430
   3.05940    0.01397
   3.06044    0.01365
   3.06149    0.01335
   3.06253    0.01305
   3.06358    0.01276
   3.06463    0.01249
   3.06567    0.01222
   3.06672    0.01196
   3.06776    0.01171
   3.06881    0.01147
   3.06986    0.01123
   3.07090    0.01100
   3.07195    0.01078
   3.07299    0.01057
   3.07404    0.01036
   3.07509    0.01016
    3.0761     0.0100
    3.0772     0.0098
    3.0782     0.0096
    3.0793     0.0094
    3.0803     0.0092
    3.0814     0.0091
    3.0824     0.0089
    3.0835     0.0088
    3.0845     0.0086
    3.0855     0.0084
    3.0866     0.0083
    3.0876     0.0082
    3.0887     0.0080
    3.0897     0.0079
    3.0908     0.0077
    3.0918     0.0076
    3.0929     0.0075
    3.0939     0.0074
    3.0950     0.0073
    3.0960     0.0071
    3.0971     0.0070
    3.0981     0.0069
    3.0991     0.0068
    3.1002     0.0067
    3.1012     0.0066
    3.1023     0.0065
    3.1033     0.0064
    3.1044     0.0063
    3.1054     0.0062
    3.1065     0.0061
    3.1075     0.0060
    3.1086     0.0059
    3.1096     0.0059
    3.1107     0.0058
    3.1117     0.0057
    3.1127     0.0056
    3.1138     0.0055
    3.1148     0.0054
    3.1159     0.0054
    3.1169     0.0053
    3.1180     0.0052
    3.1190     0.0052
    3.1201     0.0051
    3.1211     0.0050
    3.1222     0.0050
    3.1232     0.0049
    3.1242     0.0048
    3.1253     0.0048
    3.1263     0.0047
    3.1274     0.0046
    3.1284     0.0046
    3.1295     0.0045
    3.1305     0.0045
    3.1316     0.0044
    3.1326     0.0044
    3.1337     0.0043
    3.1347     0.0042
    3.1358     0.0042
    3.1368     0.0041
    3.1378     0.0041
    3.1389     0.0040
    3.1399     0.0040
    3.1410     0.0039
    3.1420     0.0039
    3.1431     0.0039
    3.1441     0.0038
    3.1452     0.0038
    3.1462     0.0037
    3.1473     0.0037
    3.1483     0.0036
    3.1494     0.0036
    3.1504     0.0036
    3.1514     0.0035
    3.1525     0.0035
    3.1535     0.0034
    3.1546     0.0034
    3.1556     0.0034
    3.1567     0.0033
    3.1577     0.0033
    3.1588     0.0033
    3.1598     0.0032
    3.1609     0.0032
  3.162     0.3156E-2
  3.163     0.3123E-2
  3.164     0.3090E-2
  3.165     0.3058E-2
  3.166     0.3026E-2
  3.167     0.2995E-2
  3.168     0.2965E-2
  3.169     0.2934E-2
  3.170     0.2905E-2
  3.171     0.2875E-2
  3.172     0.2847E-2
  3.173     0.2818E-2
  3.174     0.2790E-2
  3.176     0.2763E-2
  3.177     0.2735E-2
  3.178     0.2709E-2
  3.179     0.2682E-2
  3.180     0.2656E-2
  3.181     0.2631E-2
  3.182     0.2606E-2
  3.183     0.2581E-2
  3.184     0.2556E-2
  3.185     0.2532E-2
  3.186     0.2508E-2
  3.187     0.2485E-2
  3.188     0.2462E-2
  3.189     0.2439E-2
  3.190     0.2416E-2
  3.191     0.2394E-2
  3.192     0.2372E-2
  3.193     0.2351E-2
  3.194     0.2329E-2
  3.195     0.2308E-2
  3.196     0.2288E-2
  3.197     0.2267E-2
  3.199     0.2247E-2
  3.200     0.2227E-2
  3.201     0.2207E-2
  3.202     0.2188E-2
  3.203     0.2169E-2
  3.204     0.2150E-2
  3.205     0.2131E-2
  3.206     0.2113E-2
  3.207     0.2095E-2
  3.208     0.2077E-2
  3.209     0.2059E-2
  3.210     0.2042E-2
  3.211     0.2025E-2
  3.212     0.2008E-2
  3.213     0.1991E-2
  3.214     0.1974E-2
  3.215     0.1958E-2
  3.216     0.1942E-2
  3.217     0.1926E-2
  3.218     0.1910E-2
  3.219     0.1894E-2
  3.220     0.1879E-2
  3.222     0.1864E-2
  3.223     0.1849E-2
  3.224     0.1834E-2
  3.225     0.1819E-2
  3.226     0.1805E-2
  3.227     0.1790E-2
  3.228     0.1776E-2
  3.229     0.1762E-2
  3.230     0.1748E-2
  3.231     0.1735E-2
  3.232     0.1721E-2
  3.233     0.1708E-2
  3.234     0.1695E-2
  3.235     0.1682E-2
  3.236     0.1669E-2
  3.237     0.1656E-2
  3.238     0.1643E-2
  3.239     0.1631E-2
  3.240     0.1619E-2
  3.241     0.1607E-2
  3.242     0.1595E-2
  3.243     0.1583E-2
  3.245     0.1571E-2
  3.246     0.1559E-2
  3.247     0.1548E-2
  3.248     0.1536E-2
  3.249     0.1525E-2
  3.250     0.1514E-2
  3.251     0.1503E-2
  3.252     0.1492E-2
  3.253     0.1481E-2
  3.254     0.1471E-2
  3.255     0.1460E-2
  3.256     0.1450E-2
  3.257     0.1439E-2
  3.258     0.1429E-2
  3.259     0.1419E-2
  3.260     0.1409E-2
  3.261     0.1399E-2
  3.262     0.1389E-2
  3.263     0.1380E-2
  3.264     0.1370E-2
  3.265     0.1361E-2
  3.267     0.1351E-2
  3.268     0.1342E-2
  3.269     0.1333E-2
  3.270     0.1324E-2
  3.271     0.1315E-2
  3.272     0.1306E-2
  3.273     0.1297E-2
  3.274     0.1288E-2
  3.275     0.1280E-2
  3.276     0.1271E-2
  3.277     0.1263E-2
  3.278     0.1254E-2
  3.279     0.1246E-2
  3.280     0.1238E-2
  3.281     0.1230E-2
  3.282     0.1222E-2
  3.283     0.1214E-2
  3.284     0.1206E-2
  3.285     0.1198E-2
  3.286     0.1190E-2
  3.287     0.1183E-2
  3.288     0.1175E-2
  3.290     0.1167E-2
  3.291     0.1160E-2
  3.292     0.1153E-2
  3.293     0.1145E-2
  3.294     0.1138E-2
  3.295     0.1131E-2
  3.296     0.1124E-2
  3.297     0.1117E-2
  3.298     0.1110E-2
  3.299     0.1103E-2
  3.300     0.1096E-2
  3.301     0.1089E-2
  3.302     0.1083E-2
  3.303     0.1076E-2
  3.304     0.1069E-2
  3.305     0.1063E-2
  3.306     0.1056E-2
  3.307     0.1050E-2
  3.308     0.1044E-2
  3.309     0.1037E-2
  3.310     0.1031E-2
  3.311     0.1025E-2
  3.313     0.1019E-2
  3.314     0.1013E-2
  3.315     0.1007E-2
  3.316     0.1001E-2
  3.317     0.9947E-3
  3.318     0.9888E-3
  3.319     0.9830E-3
  3.320     0.9773E-3
  3.321     0.9716E-3
  3.322     0.9659E-3
  3.323     0.9603E-3
  3.324     0.9547E-3
  3.325     0.9492E-3
  3.326     0.9438E-3
  3.327     0.9383E-3
  3.328     0.9330E-3
  3.329     0.9277E-3
  3.330     0.9224E-3
  3.331     0.9171E-3
  3.332     0.9120E-3
  3.333     0.9068E-3
  3.335     0.9017E-3
  3.336     0.8966E-3
  3.337     0.8916E-3
  3.338     0.8867E-3
  3.339     0.8817E-3
  3.340     0.8768E-3
  3.341     0.8720E-3
  3.342     0.8672E-3
  3.343     0.8624E-3
  3.344     0.8577E-3
  3.345     0.8530E-3
  3.346     0.8483E-3
  3.347     0.8437E-3
  3.348     0.8391E-3
  3.349     0.8346E-3
  3.350     0.8301E-3
  3.351     0.8256E-3
  3.352     0.8212E-3
  3.353     0.8168E-3
  3.354     0.8124E-3
  3.355     0.8081E-3
  3.356     0.8038E-3
  3.358     0.7996E-3
  3.359     0.7953E-3
  3.360     0.7911E-3
  3.361     0.7870E-3
  3.362     0.7829E-3
  3.363     0.7788E-3
  3.364     0.7747E-3
  3.365     0.7707E-3
  3.366     0.7667E-3
  3.367     0.7627E-3
  3.368     0.7588E-3
  3.369     0.7549E-3
  3.370     0.7510E-3
  3.371     0.7472E-3
  3.372     0.7433E-3
  3.373     0.7396E-3
  3.374     0.7358E-3
  3.375     0.7321E-3
  3.376     0.7284E-3
  3.377     0.7247E-3
  3.378     0.7210E-3
  3.379     0.7174E-3
  3.381     0.7138E-3
  3.382     0.7103E-3
  3.383     0.7067E-3
  3.384     0.7032E-3
  3.385     0.6997E-3
  3.386     0.6963E-3
  3.387     0.6929E-3
  3.388     0.6894E-3
  3.389     0.6861E-3
  3.390     0.6827E-3
  3.391     0.6794E-3
  3.392     0.6761E-3
  3.393     0.6728E-3
  3.394     0.6695E-3
  3.395     0.6663E-3
  3.396     0.6631E-3
  3.397     0.6599E-3
  3.398     0.6567E-3
  3.399     0.6536E-3
  3.400     0.6504E-3
  3.401     0.6473E-3
  3.402     0.6443E-3
  3.404     0.6412E-3
  3.405     0.6382E-3
  3.406     0.6352E-3
  3.407     0.6322E-3
  3.408     0.6292E-3
  3.409     0.6263E-3
  3.410     0.6233E-3
  3.411     0.6204E-3
  3.412     0.6175E-3
  3.413     0.6147E-3
  3.414     0.6118E-3
  3.415     0.6090E-3
  3.416     0.6062E-3
  3.417     0.6034E-3
  3.418     0.6006E-3
  3.419     0.5979E-3
  3.420     0.5951E-3
  3.421     0.5924E-3
  3.422     0.5897E-3
  3.423     0.5871E-3
  3.424     0.5844E-3
  3.426     0.5818E-3
  3.427     0.5791E-3
  3.428     0.5765E-3
  3.429     0.5739E-3
  3.430     0.5714E-3
  3.431     0.5688E-3
  3.432     0.5663E-3
  3.433     0.5638E-3
  3.434     0.5613E-3
  3.435     0.5588E-3
  3.436     0.5563E-3
  3.437     0.5539E-3
  3.438     0.5514E-3
  3.439     0.5490E-3
  3.440     0.5466E-3
  3.441     0.5442E-3
  3.442     0.5418E-3
  3.443     0.5395E-3
  3.444     0.5371E-3
  3.445     0.5348E-3
  3.446     0.5325E-3
  3.447     0.5302E-3
  3.449     0.5279E-3
  3.450     0.5257E-3
  3.451     0.5234E-3
  3.452     0.5212E-3
  3.453     0.5189E-3
  3.454     0.5167E-3
  3.455     0.5145E-3
  3.456     0.5124E-3
  3.457     0.5102E-3
  3.458     0.5080E-3
  3.459     0.5059E-3
  3.460     0.5038E-3
  3.461     0.5017E-3
  3.462     0.4996E-3
  3.463     0.4975E-3
  3.464     0.4954E-3
  3.465     0.4933E-3
  3.466     0.4913E-3
  3.467     0.4893E-3
  3.468     0.4872E-3
  3.469     0.4852E-3
  3.470     0.4832E-3
  3.472     0.4812E-3
  3.473     0.4793E-3
  3.474     0.4773E-3
  3.475     0.4754E-3
  3.476     0.4734E-3
  3.477     0.4715E-3
  3.478     0.4696E-3
  3.479     0.4677E-3
  3.480     0.4658E-3
  3.481     0.4639E-3
  3.482     0.4620E-3
  3.483     0.4602E-3
  3.484     0.4583E-3
  3.485     0.4565E-3
  3.486     0.4547E-3
  3.487     0.4529E-3
  3.488     0.4511E-3
  3.489     0.4493E-3
  3.490     0.4475E-3
  3.491     0.4457E-3
  3.492     0.4440E-3
  3.494     0.4422E-3
  3.495     0.4405E-3
  3.496     0.4388E-3
  3.497     0.4370E-3
  3.498     0.4353E-3
  3.499     0.4336E-3
  3.500     0.4320E-3
  3.501     0.4303E-3
  3.502     0.4286E-3
  3.503     0.4269E-3
# 
# 06/19/2019 at 14:22 YPP @ br018.pvt.bridges.psc.edu [start]
# 06/19/2019 at 14:22                                 [end]
#  
# Timing   [Min/Max/Average]: 02s/02s/02s
#
# .-Input file : amp.in
# | excitons                     # [R] Excitons
# | amplitude                    # [R] Amplitude
# | BoseTemp=  0.02585     eV    # Bosonic Temperature
# | States= "1 - 20"             # Index of the BS state(s)
# | #DipWeight                   #  Weight the contribution to the exciton WFs with the dipoles
# | Degen_Step=0.1000E-4   eV    # Maximum energy separation of two degenerate states
