#  __      __   ______   __       __  _______    ______     
# |  \    /  \ /      \ |  \     /  \|       \  /      \    
#  \$$\  /  $$|  $$$$$$\| $$\   /  $$| $$$$$$$\|  $$$$$$\   
#   \$$\/  $$ | $$__| $$| $$$\ /  $$$| $$__/ $$| $$  | $$   
#    \$$  $$  | $$    $$| $$$$\  $$$$| $$    $$| $$  | $$   
#     \$$$$   | $$$$$$$$| $$\$$ $$ $$| $$$$$$$\| $$  | $$   
#     | $$    | $$  | $$| $$ \$$$| $$| $$__/ $$| $$__/ $$   
#     | $$    | $$  | $$| $$  \$ | $$| $$    $$ \$$    $$   
#      \$$     \$$   \$$ \$$      \$$ \$$$$$$$   \$$$$$$    
#                                                           
#              GPL Version 4.1.4 Revision 76                
#                        MPI Build                          
#                http://www.yambo-code.org                  
#
# BSK|Identifier              :7677
#    |Dimension               :3278
#    |Bands                   :534 - 614
#    |Exchange           [res]: yes
#    |Correlation        [res]: no
#    |Kernel`s coupling       : no
#    |Exchange           [cpl]: no
#    |Correlation        [cpl]: no
#    |W interaction is bare   : no
#    |ALDA kernel in R-space  : no
#    |RL vectors    [exchange]:55207
#    |E/h energy range    [ev]:-1.000000 - -1.000000
#    |Coupling range     [o/o]: 100.0000 -  100.0000
#
# Electron-Hole pairs that contributes to Excitonic State 15 more than 5%
#
#  E    [eV]  Amplitude
#  
  2.458     0.4478E-3
  2.459     0.4496E-3
  2.460     0.4515E-3
  2.461     0.4533E-3
  2.462     0.4552E-3
  2.463     0.4571E-3
  2.464     0.4590E-3
  2.465     0.4609E-3
  2.466     0.4628E-3
  2.467     0.4647E-3
  2.468     0.4667E-3
  2.469     0.4686E-3
  2.470     0.4706E-3
  2.472     0.4725E-3
  2.473     0.4745E-3
  2.474     0.4765E-3
  2.475     0.4785E-3
  2.476     0.4806E-3
  2.477     0.4826E-3
  2.478     0.4846E-3
  2.479     0.4867E-3
  2.480     0.4888E-3
  2.481     0.4909E-3
  2.482     0.4930E-3
  2.483     0.4951E-3
  2.484     0.4972E-3
  2.485     0.4994E-3
  2.486     0.5015E-3
  2.487     0.5037E-3
  2.488     0.5059E-3
  2.489     0.5081E-3
  2.490     0.5103E-3
  2.491     0.5125E-3
  2.492     0.5148E-3
  2.493     0.5170E-3
  2.495     0.5193E-3
  2.496     0.5216E-3
  2.497     0.5239E-3
  2.498     0.5262E-3
  2.499     0.5286E-3
  2.500     0.5309E-3
  2.501     0.5333E-3
  2.502     0.5356E-3
  2.503     0.5380E-3
  2.504     0.5405E-3
  2.505     0.5429E-3
  2.506     0.5453E-3
  2.507     0.5478E-3
  2.508     0.5503E-3
  2.509     0.5528E-3
  2.510     0.5553E-3
  2.511     0.5578E-3
  2.512     0.5604E-3
  2.513     0.5629E-3
  2.514     0.5655E-3
  2.515     0.5681E-3
  2.516     0.5707E-3
  2.518     0.5734E-3
  2.519     0.5760E-3
  2.520     0.5787E-3
  2.521     0.5814E-3
  2.522     0.5841E-3
  2.523     0.5868E-3
  2.524     0.5896E-3
  2.525     0.5924E-3
  2.526     0.5952E-3
  2.527     0.5980E-3
  2.528     0.6008E-3
  2.529     0.6036E-3
  2.530     0.6065E-3
  2.531     0.6094E-3
  2.532     0.6123E-3
  2.533     0.6152E-3
  2.534     0.6182E-3
  2.535     0.6212E-3
  2.536     0.6242E-3
  2.537     0.6272E-3
  2.538     0.6302E-3
  2.540     0.6333E-3
  2.541     0.6364E-3
  2.542     0.6395E-3
  2.543     0.6426E-3
  2.544     0.6457E-3
  2.545     0.6489E-3
  2.546     0.6521E-3
  2.547     0.6553E-3
  2.548     0.6586E-3
  2.549     0.6619E-3
  2.550     0.6651E-3
  2.551     0.6685E-3
  2.552     0.6718E-3
  2.553     0.6752E-3
  2.554     0.6786E-3
  2.555     0.6820E-3
  2.556     0.6854E-3
  2.557     0.6889E-3
  2.558     0.6924E-3
  2.559     0.6959E-3
  2.560     0.6995E-3
  2.561     0.7031E-3
  2.563     0.7067E-3
  2.564     0.7103E-3
  2.565     0.7140E-3
  2.566     0.7177E-3
  2.567     0.7214E-3
  2.568     0.7251E-3
  2.569     0.7289E-3
  2.570     0.7327E-3
  2.571     0.7366E-3
  2.572     0.7404E-3
  2.573     0.7443E-3
  2.574     0.7483E-3
  2.575     0.7522E-3
  2.576     0.7562E-3
  2.577     0.7602E-3
  2.578     0.7643E-3
  2.579     0.7684E-3
  2.580     0.7725E-3
  2.581     0.7767E-3
  2.582     0.7809E-3
  2.583     0.7851E-3
  2.584     0.7893E-3
  2.586     0.7936E-3
  2.587     0.7980E-3
  2.588     0.8023E-3
  2.589     0.8067E-3
  2.590     0.8111E-3
  2.591     0.8156E-3
  2.592     0.8201E-3
  2.593     0.8247E-3
  2.594     0.8293E-3
  2.595     0.8339E-3
  2.596     0.8385E-3
  2.597     0.8432E-3
  2.598     0.8480E-3
  2.599     0.8528E-3
  2.600     0.8576E-3
  2.601     0.8624E-3
  2.602     0.8673E-3
  2.603     0.8723E-3
  2.604     0.8773E-3
  2.605     0.8823E-3
  2.606     0.8874E-3
  2.608     0.8925E-3
  2.609     0.8977E-3
  2.610     0.9029E-3
  2.611     0.9081E-3
  2.612     0.9134E-3
  2.613     0.9188E-3
  2.614     0.9242E-3
  2.615     0.9296E-3
  2.616     0.9351E-3
  2.617     0.9406E-3
  2.618     0.9462E-3
  2.619     0.9518E-3
  2.620     0.9575E-3
  2.621     0.9633E-3
  2.622     0.9691E-3
  2.623     0.9749E-3
  2.624     0.9808E-3
  2.625     0.9867E-3
  2.626     0.9927E-3
  2.627     0.9988E-3
  2.628     0.1005E-2
  2.629     0.1011E-2
  2.631     0.1017E-2
  2.632     0.1024E-2
  2.633     0.1030E-2
  2.634     0.1036E-2
  2.635     0.1043E-2
  2.636     0.1049E-2
  2.637     0.1056E-2
  2.638     0.1063E-2
  2.639     0.1069E-2
  2.640     0.1076E-2
  2.641     0.1083E-2
  2.642     0.1090E-2
  2.643     0.1097E-2
  2.644     0.1104E-2
  2.645     0.1111E-2
  2.646     0.1118E-2
  2.647     0.1125E-2
  2.648     0.1133E-2
  2.649     0.1140E-2
  2.650     0.1147E-2
  2.651     0.1155E-2
  2.652     0.1163E-2
  2.654     0.1170E-2
  2.655     0.1178E-2
  2.656     0.1186E-2
  2.657     0.1194E-2
  2.658     0.1202E-2
  2.659     0.1210E-2
  2.660     0.1218E-2
  2.661     0.1226E-2
  2.662     0.1235E-2
  2.663     0.1243E-2
  2.664     0.1251E-2
  2.665     0.1260E-2
  2.666     0.1269E-2
  2.667     0.1277E-2
  2.668     0.1286E-2
  2.669     0.1295E-2
  2.670     0.1304E-2
  2.671     0.1313E-2
  2.672     0.1323E-2
  2.673     0.1332E-2
  2.674     0.1341E-2
  2.675     0.1351E-2
  2.677     0.1360E-2
  2.678     0.1370E-2
  2.679     0.1380E-2
  2.680     0.1390E-2
  2.681     0.1400E-2
  2.682     0.1410E-2
  2.683     0.1420E-2
  2.684     0.1431E-2
  2.685     0.1441E-2
  2.686     0.1452E-2
  2.687     0.1463E-2
  2.688     0.1473E-2
  2.689     0.1484E-2
  2.690     0.1495E-2
  2.691     0.1507E-2
  2.692     0.1518E-2
  2.693     0.1530E-2
  2.694     0.1541E-2
  2.695     0.1553E-2
  2.696     0.1565E-2
  2.697     0.1577E-2
  2.699     0.1589E-2
  2.700     0.1601E-2
  2.701     0.1614E-2
  2.702     0.1626E-2
  2.703     0.1639E-2
  2.704     0.1652E-2
  2.705     0.1665E-2
  2.706     0.1678E-2
  2.707     0.1691E-2
  2.708     0.1705E-2
  2.709     0.1718E-2
  2.710     0.1732E-2
  2.711     0.1746E-2
  2.712     0.1760E-2
  2.713     0.1775E-2
  2.714     0.1789E-2
  2.715     0.1804E-2
  2.716     0.1819E-2
  2.717     0.1834E-2
  2.718     0.1849E-2
  2.719     0.1864E-2
  2.720     0.1880E-2
  2.722     0.1896E-2
  2.723     0.1912E-2
  2.724     0.1928E-2
  2.725     0.1944E-2
  2.726     0.1961E-2
  2.727     0.1978E-2
  2.728     0.1995E-2
  2.729     0.2012E-2
  2.730     0.2030E-2
  2.731     0.2047E-2
  2.732     0.2065E-2
  2.733     0.2084E-2
  2.734     0.2102E-2
  2.735     0.2121E-2
  2.736     0.2140E-2
  2.737     0.2159E-2
  2.738     0.2178E-2
  2.739     0.2198E-2
  2.740     0.2218E-2
  2.741     0.2238E-2
  2.742     0.2259E-2
  2.743     0.2280E-2
  2.745     0.2301E-2
  2.746     0.2322E-2
  2.747     0.2344E-2
  2.748     0.2366E-2
  2.749     0.2389E-2
  2.750     0.2411E-2
  2.751     0.2434E-2
  2.752     0.2458E-2
  2.753     0.2481E-2
  2.754     0.2505E-2
  2.755     0.2530E-2
  2.756     0.2554E-2
  2.757     0.2579E-2
  2.758     0.2605E-2
  2.759     0.2631E-2
  2.760     0.2657E-2
  2.761     0.2683E-2
  2.762     0.2710E-2
  2.763     0.2738E-2
    2.7644     0.0028
    2.7655     0.0028
    2.7665     0.0028
    2.7675     0.0029
    2.7686     0.0029
    2.7696     0.0029
    2.7707     0.0029
    2.7717     0.0030
    2.7728     0.0030
    2.7738     0.0030
    2.7749     0.0031
    2.7759     0.0031
    2.7770     0.0031
    2.7780     0.0032
    2.7791     0.0032
    2.7801     0.0032
    2.7811     0.0033
    2.7822     0.0033
    2.7832     0.0033
    2.7843     0.0034
    2.7853     0.0034
    2.7864     0.0035
    2.7874     0.0035
    2.7885     0.0035
    2.7895     0.0036
    2.7906     0.0036
    2.7916     0.0037
    2.7927     0.0037
    2.7937     0.0038
    2.7947     0.0038
    2.7958     0.0038
    2.7968     0.0039
    2.7979     0.0039
    2.7989     0.0040
    2.8000     0.0040
    2.8010     0.0041
    2.8021     0.0041
    2.8031     0.0042
    2.8042     0.0042
    2.8052     0.0043
    2.8063     0.0044
    2.8073     0.0044
    2.8083     0.0045
    2.8094     0.0045
    2.8104     0.0046
    2.8115     0.0046
    2.8125     0.0047
    2.8136     0.0048
    2.8146     0.0048
    2.8157     0.0049
    2.8167     0.0050
    2.8178     0.0050
    2.8188     0.0051
    2.8199     0.0052
    2.8209     0.0052
    2.8219     0.0053
    2.8230     0.0054
    2.8240     0.0055
    2.8251     0.0055
    2.8261     0.0056
    2.8272     0.0057
    2.8282     0.0058
    2.8293     0.0059
    2.8303     0.0060
    2.8314     0.0061
    2.8324     0.0062
    2.8334     0.0062
    2.8345     0.0063
    2.8355     0.0064
    2.8366     0.0065
    2.8376     0.0066
    2.8387     0.0067
    2.8397     0.0069
    2.8408     0.0070
    2.8418     0.0071
    2.8429     0.0072
    2.8439     0.0073
    2.8450     0.0074
    2.8460     0.0076
    2.8470     0.0077
    2.8481     0.0078
    2.8491     0.0080
    2.8502     0.0081
    2.8512     0.0082
    2.8523     0.0084
    2.8533     0.0085
    2.8544     0.0087
    2.8554     0.0088
    2.8565     0.0090
    2.8575     0.0092
    2.8586     0.0093
    2.8596     0.0095
    2.8606     0.0097
    2.8617     0.0099
   2.86274    0.01009
   2.86379    0.01028
   2.86483    0.01049
   2.86588    0.01070
   2.86692    0.01091
   2.86797    0.01114
   2.86902    0.01137
   2.87006    0.01160
   2.87111    0.01185
   2.87215    0.01210
   2.87320    0.01236
   2.87425    0.01263
   2.87529    0.01291
   2.87634    0.01320
   2.87738    0.01349
   2.87843    0.01380
   2.87948    0.01412
   2.88052    0.01445
   2.88157    0.01479
   2.88261    0.01514
   2.88366    0.01550
   2.88471    0.01588
   2.88575    0.01627
   2.88680    0.01668
   2.88784    0.01710
   2.88889    0.01754
   2.88994    0.01800
   2.89098    0.01847
   2.89203    0.01896
   2.89307    0.01948
   2.89412    0.02001
   2.89517    0.02056
   2.89621    0.02114
   2.89726    0.02175
   2.89830    0.02238
   2.89935    0.02304
   2.90040    0.02372
   2.90144    0.02444
   2.90249    0.02519
   2.90353    0.02598
   2.90458    0.02680
   2.90563    0.02766
   2.90667    0.02857
   2.90772    0.02952
   2.90876    0.03052
   2.90981    0.03157
   2.91086    0.03267
   2.91190    0.03383
   2.91295    0.03506
   2.91400    0.03635
   2.91504    0.03772
   2.91609    0.03916
   2.91713    0.04069
   2.91818    0.04231
   2.91923    0.04402
   2.92027    0.04584
   2.92132    0.04778
   2.92236    0.04984
   2.92341    0.05204
   2.92446    0.05438
   2.92550    0.05688
   2.92655    0.05956
   2.92759    0.06242
   2.92864    0.06550
   2.92969    0.06881
   2.93073    0.07237
   2.93178    0.07621
   2.93282    0.08036
   2.93387    0.08485
   2.93492    0.08972
   2.93596    0.09500
  2.937008   0.100762
  2.938054   0.107044
  2.939100   0.113914
  2.940146   0.121439
  2.941192   0.129703
  2.942238   0.138797
  2.943284   0.148826
  2.944330   0.159906
  2.945376   0.172173
  2.946422   0.185769
  2.947469   0.200861
  2.948514   0.217616
  2.949561   0.236220
  2.950607   0.256850
  2.951653   0.279690
  2.952699   0.304891
  2.953745   0.332606
  2.954791   0.362954
  2.955837   0.396077
  2.956883   0.432129
  2.957929   0.471348
  2.958975   0.514009
  2.960021   0.560432
  2.961067   0.610803
  2.962113   0.665058
  2.963159   0.722579
  2.964205   0.782035
  2.965251   0.841117
  2.966297   0.896520
  2.967343   0.944151
  2.968389   0.979622
  2.969435   0.999051
  2.970481   1.000000
  2.971528   0.982099
  2.972574   0.947173
  2.973619   0.898725
  2.974666   0.841083
  2.975712   0.778569
  2.976758   0.714878
  2.977804   0.652749
  2.978850   0.594047
  2.979896   0.539806
  2.980942   0.490515
  2.981988   0.446221
  2.983034   0.406761
  2.984080   0.371796
  2.985126   0.340954
  2.986172   0.313819
  2.987218   0.290001
  2.988264   0.269116
  2.989310   0.250815
  2.990356   0.234763
  2.991402   0.220660
  2.992448   0.208221
  2.993494   0.197199
  2.994540   0.187377
  2.995586   0.178584
  2.996633   0.170679
  2.997679   0.163546
  2.998724   0.157064
  2.999770   0.151103
  3.000817   0.145500
  3.001863   0.140079
  3.002909   0.134664
  3.003955   0.129117
  3.005001   0.123360
  3.006047   0.117398
  3.007093   0.111296
  3.008139   0.105168
   3.00919    0.09913
   3.01023    0.09330
   3.01128    0.08776
   3.01232    0.08255
   3.01337    0.07770
   3.01442    0.07321
   3.01546    0.06907
   3.01651    0.06527
   3.01755    0.06177
   3.01860    0.05855
   3.01965    0.05559
   3.02069    0.05286
   3.02174    0.05034
   3.02278    0.04801
   3.02383    0.04585
   3.02488    0.04384
   3.02592    0.04197
   3.02697    0.04023
   3.02801    0.03860
   3.02906    0.03707
   3.03011    0.03564
   3.03115    0.03429
   3.03220    0.03303
   3.03324    0.03184
   3.03429    0.03071
   3.03534    0.02965
   3.03638    0.02864
   3.03743    0.02769
   3.03847    0.02678
   3.03952    0.02592
   3.04057    0.02511
   3.04161    0.02433
   3.04266    0.02359
   3.04370    0.02288
   3.04475    0.02221
   3.04580    0.02157
   3.04684    0.02095
   3.04789    0.02037
   3.04893    0.01980
   3.04998    0.01926
   3.05103    0.01875
   3.05207    0.01825
   3.05312    0.01777
   3.05416    0.01732
   3.05521    0.01688
   3.05626    0.01645
   3.05730    0.01605
   3.05835    0.01566
   3.05940    0.01528
   3.06044    0.01492
   3.06149    0.01457
   3.06253    0.01423
   3.06358    0.01390
   3.06463    0.01359
   3.06567    0.01328
   3.06672    0.01299
   3.06776    0.01271
   3.06881    0.01243
   3.06986    0.01216
   3.07090    0.01191
   3.07195    0.01166
   3.07299    0.01142
   3.07404    0.01118
   3.07509    0.01096
   3.07613    0.01074
   3.07718    0.01052
   3.07822    0.01032
   3.07927    0.01012
    3.0803     0.0099
    3.0814     0.0097
    3.0824     0.0095
    3.0835     0.0094
    3.0845     0.0092
    3.0855     0.0090
    3.0866     0.0089
    3.0876     0.0087
    3.0887     0.0085
    3.0897     0.0084
    3.0908     0.0082
    3.0918     0.0081
    3.0929     0.0080
    3.0939     0.0078
    3.0950     0.0077
    3.0960     0.0076
    3.0971     0.0074
    3.0981     0.0073
    3.0991     0.0072
    3.1002     0.0071
    3.1012     0.0070
    3.1023     0.0069
    3.1033     0.0067
    3.1044     0.0066
    3.1054     0.0065
    3.1065     0.0064
    3.1075     0.0063
    3.1086     0.0062
    3.1096     0.0061
    3.1107     0.0061
    3.1117     0.0060
    3.1127     0.0059
    3.1138     0.0058
    3.1148     0.0057
    3.1159     0.0056
    3.1169     0.0055
    3.1180     0.0055
    3.1190     0.0054
    3.1201     0.0053
    3.1211     0.0052
    3.1222     0.0052
    3.1232     0.0051
    3.1242     0.0050
    3.1253     0.0050
    3.1263     0.0049
    3.1274     0.0048
    3.1284     0.0048
    3.1295     0.0047
    3.1305     0.0046
    3.1316     0.0046
    3.1326     0.0045
    3.1337     0.0045
    3.1347     0.0044
    3.1358     0.0043
    3.1368     0.0043
    3.1378     0.0042
    3.1389     0.0042
    3.1399     0.0041
    3.1410     0.0041
    3.1420     0.0040
    3.1431     0.0040
    3.1441     0.0039
    3.1452     0.0039
    3.1462     0.0038
    3.1473     0.0038
    3.1483     0.0038
    3.1494     0.0037
    3.1504     0.0037
    3.1514     0.0036
    3.1525     0.0036
    3.1535     0.0035
    3.1546     0.0035
    3.1556     0.0035
    3.1567     0.0034
    3.1577     0.0034
    3.1588     0.0033
    3.1598     0.0033
    3.1609     0.0033
    3.1619     0.0032
    3.1630     0.0032
    3.1640     0.0032
  3.165     0.3130E-2
  3.166     0.3097E-2
  3.167     0.3064E-2
  3.168     0.3031E-2
  3.169     0.2999E-2
  3.170     0.2968E-2
  3.171     0.2937E-2
  3.172     0.2906E-2
  3.173     0.2876E-2
  3.174     0.2847E-2
  3.176     0.2818E-2
  3.177     0.2789E-2
  3.178     0.2761E-2
  3.179     0.2733E-2
  3.180     0.2706E-2
  3.181     0.2679E-2
  3.182     0.2652E-2
  3.183     0.2626E-2
  3.184     0.2600E-2
  3.185     0.2575E-2
  3.186     0.2550E-2
  3.187     0.2525E-2
  3.188     0.2501E-2
  3.189     0.2477E-2
  3.190     0.2453E-2
  3.191     0.2430E-2
  3.192     0.2407E-2
  3.193     0.2385E-2
  3.194     0.2362E-2
  3.195     0.2340E-2
  3.196     0.2319E-2
  3.197     0.2297E-2
  3.199     0.2276E-2
  3.200     0.2255E-2
  3.201     0.2235E-2
  3.202     0.2214E-2
  3.203     0.2194E-2
  3.204     0.2175E-2
  3.205     0.2155E-2
  3.206     0.2136E-2
  3.207     0.2117E-2
  3.208     0.2099E-2
  3.209     0.2080E-2
  3.210     0.2062E-2
  3.211     0.2044E-2
  3.212     0.2026E-2
  3.213     0.2009E-2
  3.214     0.1992E-2
  3.215     0.1975E-2
  3.216     0.1958E-2
  3.217     0.1941E-2
  3.218     0.1925E-2
  3.219     0.1909E-2
  3.220     0.1893E-2
  3.222     0.1877E-2
  3.223     0.1861E-2
  3.224     0.1846E-2
  3.225     0.1831E-2
  3.226     0.1816E-2
  3.227     0.1801E-2
  3.228     0.1786E-2
  3.229     0.1772E-2
  3.230     0.1757E-2
  3.231     0.1743E-2
  3.232     0.1729E-2
  3.233     0.1715E-2
  3.234     0.1702E-2
  3.235     0.1688E-2
  3.236     0.1675E-2
  3.237     0.1662E-2
  3.238     0.1649E-2
  3.239     0.1636E-2
  3.240     0.1623E-2
  3.241     0.1611E-2
  3.242     0.1598E-2
  3.243     0.1586E-2
  3.245     0.1574E-2
  3.246     0.1562E-2
  3.247     0.1550E-2
  3.248     0.1539E-2
  3.249     0.1527E-2
  3.250     0.1516E-2
  3.251     0.1504E-2
  3.252     0.1493E-2
  3.253     0.1482E-2
  3.254     0.1471E-2
  3.255     0.1460E-2
  3.256     0.1450E-2
  3.257     0.1439E-2
  3.258     0.1429E-2
  3.259     0.1418E-2
  3.260     0.1408E-2
  3.261     0.1398E-2
  3.262     0.1388E-2
  3.263     0.1378E-2
  3.264     0.1368E-2
  3.265     0.1358E-2
  3.267     0.1349E-2
  3.268     0.1339E-2
  3.269     0.1330E-2
  3.270     0.1321E-2
  3.271     0.1311E-2
  3.272     0.1302E-2
  3.273     0.1293E-2
  3.274     0.1284E-2
  3.275     0.1275E-2
  3.276     0.1267E-2
  3.277     0.1258E-2
  3.278     0.1249E-2
  3.279     0.1241E-2
  3.280     0.1233E-2
  3.281     0.1224E-2
  3.282     0.1216E-2
  3.283     0.1208E-2
  3.284     0.1200E-2
  3.285     0.1192E-2
  3.286     0.1184E-2
  3.287     0.1176E-2
  3.288     0.1168E-2
  3.290     0.1161E-2
  3.291     0.1153E-2
  3.292     0.1146E-2
  3.293     0.1138E-2
  3.294     0.1131E-2
  3.295     0.1124E-2
  3.296     0.1116E-2
  3.297     0.1109E-2
  3.298     0.1102E-2
  3.299     0.1095E-2
  3.300     0.1088E-2
  3.301     0.1081E-2
  3.302     0.1074E-2
  3.303     0.1068E-2
  3.304     0.1061E-2
  3.305     0.1054E-2
  3.306     0.1048E-2
  3.307     0.1041E-2
  3.308     0.1035E-2
  3.309     0.1028E-2
  3.310     0.1022E-2
  3.311     0.1016E-2
  3.313     0.1010E-2
  3.314     0.1003E-2
  3.315     0.9974E-3
  3.316     0.9913E-3
  3.317     0.9853E-3
  3.318     0.9794E-3
  3.319     0.9735E-3
  3.320     0.9677E-3
  3.321     0.9619E-3
  3.322     0.9562E-3
  3.323     0.9505E-3
  3.324     0.9449E-3
  3.325     0.9393E-3
  3.326     0.9338E-3
  3.327     0.9283E-3
  3.328     0.9229E-3
  3.329     0.9175E-3
  3.330     0.9122E-3
  3.331     0.9069E-3
  3.332     0.9016E-3
  3.333     0.8964E-3
  3.335     0.8913E-3
  3.336     0.8862E-3
  3.337     0.8811E-3
  3.338     0.8761E-3
  3.339     0.8711E-3
  3.340     0.8662E-3
  3.341     0.8613E-3
  3.342     0.8564E-3
  3.343     0.8516E-3
  3.344     0.8468E-3
  3.345     0.8421E-3
  3.346     0.8374E-3
  3.347     0.8328E-3
  3.348     0.8281E-3
  3.349     0.8236E-3
  3.350     0.8190E-3
  3.351     0.8145E-3
  3.352     0.8101E-3
  3.353     0.8056E-3
  3.354     0.8012E-3
  3.355     0.7969E-3
  3.356     0.7926E-3
  3.358     0.7883E-3
  3.359     0.7840E-3
  3.360     0.7798E-3
  3.361     0.7756E-3
  3.362     0.7715E-3
  3.363     0.7674E-3
  3.364     0.7633E-3
  3.365     0.7592E-3
  3.366     0.7552E-3
  3.367     0.7512E-3
  3.368     0.7473E-3
  3.369     0.7434E-3
  3.370     0.7395E-3
  3.371     0.7356E-3
  3.372     0.7318E-3
  3.373     0.7280E-3
  3.374     0.7242E-3
  3.375     0.7205E-3
  3.376     0.7168E-3
  3.377     0.7131E-3
  3.378     0.7094E-3
  3.379     0.7058E-3
  3.381     0.7022E-3
  3.382     0.6986E-3
  3.383     0.6951E-3
  3.384     0.6915E-3
  3.385     0.6880E-3
  3.386     0.6846E-3
  3.387     0.6811E-3
  3.388     0.6777E-3
  3.389     0.6743E-3
  3.390     0.6710E-3
  3.391     0.6676E-3
  3.392     0.6643E-3
  3.393     0.6610E-3
  3.394     0.6578E-3
  3.395     0.6545E-3
  3.396     0.6513E-3
  3.397     0.6481E-3
  3.398     0.6450E-3
  3.399     0.6418E-3
  3.400     0.6387E-3
  3.401     0.6356E-3
  3.402     0.6325E-3
  3.404     0.6295E-3
  3.405     0.6264E-3
  3.406     0.6234E-3
  3.407     0.6204E-3
  3.408     0.6174E-3
  3.409     0.6145E-3
  3.410     0.6116E-3
  3.411     0.6087E-3
  3.412     0.6058E-3
  3.413     0.6029E-3
  3.414     0.6001E-3
  3.415     0.5973E-3
  3.416     0.5944E-3
  3.417     0.5917E-3
  3.418     0.5889E-3
  3.419     0.5862E-3
  3.420     0.5834E-3
  3.421     0.5807E-3
  3.422     0.5780E-3
  3.423     0.5754E-3
  3.424     0.5727E-3
  3.426     0.5701E-3
  3.427     0.5675E-3
  3.428     0.5649E-3
  3.429     0.5623E-3
  3.430     0.5597E-3
  3.431     0.5572E-3
  3.432     0.5547E-3
  3.433     0.5521E-3
  3.434     0.5497E-3
  3.435     0.5472E-3
  3.436     0.5447E-3
  3.437     0.5423E-3
  3.438     0.5398E-3
  3.439     0.5374E-3
  3.440     0.5350E-3
  3.441     0.5327E-3
  3.442     0.5303E-3
  3.443     0.5280E-3
  3.444     0.5256E-3
  3.445     0.5233E-3
  3.446     0.5210E-3
  3.447     0.5187E-3
  3.449     0.5165E-3
  3.450     0.5142E-3
  3.451     0.5120E-3
  3.452     0.5097E-3
  3.453     0.5075E-3
  3.454     0.5053E-3
  3.455     0.5031E-3
  3.456     0.5010E-3
  3.457     0.4988E-3
  3.458     0.4967E-3
  3.459     0.4946E-3
  3.460     0.4924E-3
  3.461     0.4903E-3
  3.462     0.4883E-3
  3.463     0.4862E-3
  3.464     0.4841E-3
  3.465     0.4821E-3
  3.466     0.4800E-3
  3.467     0.4780E-3
  3.468     0.4760E-3
  3.469     0.4740E-3
  3.470     0.4720E-3
  3.472     0.4701E-3
  3.473     0.4681E-3
  3.474     0.4662E-3
  3.475     0.4642E-3
  3.476     0.4623E-3
  3.477     0.4604E-3
  3.478     0.4585E-3
  3.479     0.4566E-3
  3.480     0.4547E-3
  3.481     0.4529E-3
  3.482     0.4510E-3
  3.483     0.4492E-3
  3.484     0.4473E-3
  3.485     0.4455E-3
  3.486     0.4437E-3
  3.487     0.4419E-3
  3.488     0.4401E-3
  3.489     0.4384E-3
  3.490     0.4366E-3
  3.491     0.4348E-3
  3.492     0.4331E-3
  3.494     0.4314E-3
  3.495     0.4296E-3
  3.496     0.4279E-3
  3.497     0.4262E-3
  3.498     0.4245E-3
  3.499     0.4229E-3
  3.500     0.4212E-3
  3.501     0.4195E-3
  3.502     0.4179E-3
  3.503     0.4162E-3
# 
# 06/19/2019 at 14:22 YPP @ br018.pvt.bridges.psc.edu [start]
# 06/19/2019 at 14:22                                 [end]
#  
# Timing   [Min/Max/Average]: 02s/02s/02s
#
# .-Input file : amp.in
# | excitons                     # [R] Excitons
# | amplitude                    # [R] Amplitude
# | BoseTemp=  0.02585     eV    # Bosonic Temperature
# | States= "1 - 20"             # Index of the BS state(s)
# | #DipWeight                   #  Weight the contribution to the exciton WFs with the dipoles
# | Degen_Step=0.1000E-4   eV    # Maximum energy separation of two degenerate states
