#                                                           
# ooooo   oooo ..     ooo        ooo ooooooooo.    .oooo.   
#  `88.   .8" .88.    `88.       .88 `88"   `Y8b  dP"  `Yb  
#   `88. .8" .8"88.    888b     d"88  88     888 88      88 
#    `88.8" .8" `88.   8 Y88. .P  88  88oooo888" 88      88 
#     `88" .88ooo888.  8  `888"   88  88    `88b 88      88 
#      88 .8"     `88. 8    Y     88  88    .88P `8b    d8" 
#     o88o88o      888o8          88 o88bood8P"   `Ybod8P"  
#                                                           
#                                                           
#               GPL Version 4.1.4 Revision 76               
#                         MPI Build                         
#                 http://www.yambo-code.org                 
#
# BSK|Identifier              :1891
#    |Dimension               :11943
#    |Bands                   :121 - 172
#    |Exchange           [res]: yes
#    |Correlation        [res]: yes
#    |Kernel`s coupling       : no
#    |Exchange           [cpl]: no
#    |Correlation        [cpl]: no
#    |W interaction is bare   : no
#    |ALDA kernel in R-space  : no
#    |RL vectors    [exchange]:31669
#    |RL vectors [correlation]:387
#    |E/h energy range    [ev]:-1.000000 - -1.000000
#    |Coupling range     [o/o]: 100.0000 -  100.0000
#  W |Interaction is diagonal : no
#    |Matrix size             :2845
#    |Bands                   :1 - 570
#    |e/h energy range    [ev]:-1.000000 - -1.000000
#    |Poles              [o/o]: 100.0000
#    |RL vectors in the sum   :31669
#    |[r,Vnl] included        : yes
#    |Field direction         :-.8660E-5 0.5000E-5  0.000000
#    |Coulomb Cutoff          :box z
#    |xc-Kernel               :none
# RIM|RL components      [col]:0
#    |Random points      [col]:0
#
# Electron-Hole pairs that contributes to Excitonic State 7 more than 5%
#
#  E    [eV]  Amplitude
#  
    2.3935     0.0035
    2.3961     0.0036
    2.3987     0.0036
    2.4012     0.0036
    2.4038     0.0037
    2.4064     0.0037
    2.4090     0.0037
    2.4116     0.0038
    2.4141     0.0038
    2.4167     0.0038
    2.4193     0.0039
    2.4219     0.0039
    2.4245     0.0039
    2.4270     0.0040
    2.4296     0.0040
    2.4322     0.0040
    2.4348     0.0041
    2.4374     0.0041
    2.4399     0.0041
    2.4425     0.0042
    2.4451     0.0042
    2.4477     0.0042
    2.4503     0.0043
    2.4528     0.0043
    2.4554     0.0044
    2.4580     0.0044
    2.4606     0.0044
    2.4632     0.0045
    2.4657     0.0045
    2.4683     0.0046
    2.4709     0.0046
    2.4735     0.0047
    2.4761     0.0047
    2.4786     0.0047
    2.4812     0.0048
    2.4838     0.0048
    2.4864     0.0049
    2.4890     0.0049
    2.4915     0.0050
    2.4941     0.0050
    2.4967     0.0051
    2.4993     0.0051
    2.5018     0.0052
    2.5044     0.0052
    2.5070     0.0053
    2.5096     0.0054
    2.5122     0.0054
    2.5147     0.0055
    2.5173     0.0055
    2.5199     0.0056
    2.5225     0.0056
    2.5251     0.0057
    2.5276     0.0058
    2.5302     0.0058
    2.5328     0.0059
    2.5354     0.0060
    2.5380     0.0060
    2.5405     0.0061
    2.5431     0.0062
    2.5457     0.0062
    2.5483     0.0063
    2.5509     0.0064
    2.5534     0.0064
    2.5560     0.0065
    2.5586     0.0066
    2.5612     0.0067
    2.5638     0.0068
    2.5663     0.0068
    2.5689     0.0069
    2.5715     0.0070
    2.5741     0.0071
    2.5767     0.0072
    2.5792     0.0073
    2.5818     0.0074
    2.5844     0.0074
    2.5870     0.0075
    2.5896     0.0076
    2.5921     0.0077
    2.5947     0.0078
    2.5973     0.0079
    2.5999     0.0080
    2.6024     0.0081
    2.6050     0.0083
    2.6076     0.0084
    2.6102     0.0085
    2.6128     0.0086
    2.6153     0.0087
    2.6179     0.0088
    2.6205     0.0090
    2.6231     0.0091
    2.6257     0.0092
    2.6282     0.0093
    2.6308     0.0095
    2.6334     0.0096
    2.6360     0.0098
    2.6386     0.0099
   2.64114    0.01006
   2.64372    0.01021
   2.64630    0.01037
   2.64888    0.01053
   2.65146    0.01070
   2.65404    0.01086
   2.65662    0.01104
   2.65920    0.01122
   2.66178    0.01140
   2.66436    0.01158
   2.66694    0.01178
   2.66952    0.01197
   2.67210    0.01218
   2.67467    0.01239
   2.67725    0.01260
   2.67983    0.01282
   2.68241    0.01305
   2.68499    0.01328
   2.68757    0.01352
   2.69015    0.01377
   2.69273    0.01402
   2.69531    0.01428
   2.69789    0.01455
   2.70047    0.01483
   2.70305    0.01512
   2.70563    0.01542
   2.70821    0.01572
   2.71079    0.01604
   2.71337    0.01636
   2.71595    0.01670
   2.71853    0.01705
   2.72111    0.01741
   2.72369    0.01779
   2.72627    0.01818
   2.72884    0.01858
   2.73142    0.01899
   2.73400    0.01943
   2.73658    0.01987
   2.73916    0.02034
   2.74174    0.02082
   2.74432    0.02133
   2.74690    0.02185
   2.74948    0.02240
   2.75206    0.02296
   2.75464    0.02356
   2.75722    0.02417
   2.75980    0.02482
   2.76238    0.02549
   2.76496    0.02620
   2.76754    0.02694
   2.77012    0.02771
   2.77270    0.02853
   2.77528    0.02938
   2.77786    0.03027
   2.78043    0.03122
   2.78301    0.03221
   2.78559    0.03326
   2.78817    0.03436
   2.79075    0.03553
   2.79333    0.03677
   2.79591    0.03808
   2.79849    0.03947
   2.80107    0.04095
   2.80365    0.04252
   2.80623    0.04420
   2.80881    0.04599
   2.81139    0.04791
   2.81397    0.04997
   2.81655    0.05218
   2.81913    0.05455
   2.82171    0.05712
   2.82429    0.05989
   2.82687    0.06290
   2.82945    0.06616
   2.83203    0.06972
   2.83460    0.07360
   2.83718    0.07785
   2.83976    0.08251
   2.84234    0.08763
   2.84492    0.09329
   2.84750    0.09955
  2.850081   0.106483
  2.852661   0.114188
  2.855241   0.122762
  2.857820   0.132315
  2.860399   0.142961
  2.862979   0.154816
  2.865559   0.167987
  2.868138   0.182551
  2.870718   0.198537
  2.873297   0.215886
  2.875876   0.234406
  2.878456   0.253718
  2.881036   0.273204
  2.883615   0.291994
  2.886195   0.308996
  2.888774   0.323019
  2.891354   0.332983
  2.893933   0.338159
  2.896513   0.338365
  2.899092   0.334026
  2.901672   0.326063
  2.904251   0.315671
  2.906831   0.304080
  2.909410   0.292377
  2.911990   0.281411
  2.914569   0.271783
  2.917149   0.263879
  2.919728   0.257922
  2.922308   0.254032
  2.924887   0.252262
  2.927467   0.252639
  2.930046   0.255184
  2.932626   0.259933
  2.935205   0.266943
  2.937785   0.276305
  2.940364   0.288144
  2.942944   0.302628
  2.945524   0.319967
  2.948103   0.340408
  2.950682   0.364241
  2.953262   0.391783
  2.955841   0.423364
  2.958421   0.459299
  2.961000   0.499833
  2.963580   0.545085
  2.966159   0.594941
  2.968739   0.648939
  2.971318   0.706132
  2.973898   0.764957
  2.976477   0.823204
  2.979057   0.878050
  2.981636   0.926262
  2.984216   0.964528
  2.986795   0.989852
  2.989375   1.000000
  2.991955   0.993857
  2.994534   0.971696
  2.997114   0.935202
  2.999693   0.887237
  3.002273   0.831322
  3.004852   0.771059
  3.007432   0.709635
  3.010011   0.649545
  3.012591   0.592506
  3.015170   0.539560
  3.017750   0.491187
  3.020329   0.447489
  3.022908   0.408315
  3.025488   0.373370
  3.028068   0.342297
  3.030647   0.314709
  3.033226   0.290227
  3.035806   0.268498
  3.038386   0.249199
  3.040965   0.232047
  3.043545   0.216784
  3.046124   0.203190
  3.048704   0.191071
  3.051283   0.180260
  3.053863   0.170614
  3.056442   0.162007
  3.059022   0.154333
  3.061601   0.147500
  3.064181   0.141430
  3.066760   0.136057
  3.069340   0.131324
  3.071919   0.127185
  3.074499   0.123601
  3.077078   0.120539
  3.079658   0.117978
  3.082237   0.115898
  3.084817   0.114289
  3.087396   0.113146
  3.089976   0.112468
  3.092555   0.112265
  3.095135   0.112550
  3.097714   0.113344
  3.100294   0.114675
  3.102873   0.116581
  3.105453   0.119105
  3.108032   0.122303
  3.110612   0.126237
  3.113191   0.130981
  3.115771   0.136615
  3.118351   0.143225
  3.120930   0.150897
  3.123509   0.159708
  3.126089   0.169713
  3.128668   0.180921
  3.131248   0.193268
  3.133827   0.206572
  3.136407   0.220495
  3.138986   0.234503
  3.141566   0.247850
  3.144145   0.259616
  3.146725   0.268809
  3.149304   0.274540
  3.151884   0.276214
  3.154464   0.273677
  3.157043   0.267246
  3.159623   0.257627
  3.162202   0.245736
  3.164782   0.232524
  3.167361   0.218841
  3.169941   0.205361
  3.172520   0.192568
  3.175100   0.180765
  3.177679   0.170119
  3.180259   0.160692
  3.182838   0.152479
  3.185418   0.145434
  3.187997   0.139491
  3.190577   0.134575
  3.193156   0.130614
  3.195736   0.127542
  3.198315   0.125302
  3.200895   0.123848
  3.203474   0.123146
  3.206053   0.123173
  3.208633   0.123918
  3.211213   0.125382
  3.213792   0.127578
  3.216372   0.130531
  3.218951   0.134279
  3.221531   0.138872
  3.224110   0.144377
  3.226690   0.150875
  3.229269   0.158463
  3.231849   0.167257
  3.234428   0.177390
  3.237008   0.189015
  3.239587   0.202299
  3.242167   0.217421
  3.244746   0.234566
  3.247326   0.253906
  3.249905   0.275578
  3.252485   0.299645
  3.255064   0.326056
  3.257644   0.354584
  3.260223   0.384762
  3.262803   0.415854
  3.265382   0.446841
  3.267962   0.476516
  3.270541   0.503620
  3.273121   0.527034
  3.275701   0.545914
  3.278280   0.559705
  3.280859   0.568048
  3.283439   0.570615
  3.286018   0.567055
  3.288598   0.557074
  3.291178   0.540654
  3.293757   0.518252
  3.296336   0.490865
  3.298916   0.459909
  3.301496   0.426965
  3.304075   0.393533
  3.306654   0.360835
  3.309234   0.329749
  3.311813   0.300817
  3.314393   0.274301
  3.316972   0.250270
  3.319552   0.228650
  3.322132   0.209292
  3.324711   0.192005
  3.327291   0.176585
  3.329870   0.162832
  3.332450   0.150557
  3.335029   0.139586
  3.337609   0.129763
  3.340188   0.120950
  3.342768   0.113027
  3.345347   0.105887
   3.34793    0.09944
   3.35051    0.09360
   3.35309    0.08830
   3.35567    0.08348
   3.35824    0.07909
   3.36082    0.07508
   3.36340    0.07141
   3.36598    0.06805
   3.36856    0.06496
   3.37114    0.06212
   3.37372    0.05950
   3.37630    0.05708
   3.37888    0.05485
   3.38146    0.05278
   3.38404    0.05087
   3.38662    0.04910
   3.38920    0.04745
   3.39178    0.04593
   3.39436    0.04451
   3.39694    0.04319
   3.39952    0.04197
   3.40210    0.04083
   3.40468    0.03978
   3.40726    0.03879
   3.40983    0.03789
   3.41241    0.03704
   3.41499    0.03626
   3.41757    0.03554
   3.42015    0.03488
   3.42273    0.03427
   3.42531    0.03371
   3.42789    0.03320
   3.43047    0.03274
   3.43305    0.03233
   3.43563    0.03196
   3.43821    0.03164
   3.44079    0.03136
   3.44337    0.03112
   3.44595    0.03093
   3.44853    0.03078
   3.45111    0.03067
   3.45369    0.03060
   3.45627    0.03058
   3.45885    0.03061
   3.46142    0.03068
   3.46400    0.03080
   3.46658    0.03097
   3.46916    0.03119
   3.47174    0.03147
   3.47432    0.03181
   3.47690    0.03220
   3.47948    0.03267
   3.48206    0.03320
   3.48464    0.03381
   3.48722    0.03450
   3.48980    0.03528
   3.49238    0.03616
   3.49496    0.03715
   3.49754    0.03826
   3.50012    0.03949
   3.50270    0.04087
   3.50528    0.04241
   3.50786    0.04414
   3.51044    0.04606
   3.51302    0.04821
   3.51559    0.05062
   3.51817    0.05332
   3.52075    0.05634
   3.52333    0.05974
   3.52591    0.06355
   3.52849    0.06784
   3.53107    0.07265
   3.53365    0.07806
   3.53623    0.08413
   3.53881    0.09090
   3.54139    0.09843
  3.543969   0.106715
  3.546549   0.115736
  3.549129   0.125384
  3.551708   0.135454
  3.554287   0.145626
  3.556867   0.155447
  3.559446   0.164373
  3.562026   0.171827
  3.564605   0.177312
  3.567185   0.180544
  3.569764   0.181523
  3.572344   0.180557
  3.574924   0.178183
  3.577503   0.175056
  3.580082   0.171824
  3.582662   0.169046
  3.585241   0.167149
  3.587821   0.166416
  3.590400   0.166995
  3.592980   0.168906
  3.595559   0.172046
  3.598139   0.176189
  3.600718   0.180989
  3.603298   0.185999
  3.605878   0.190717
  3.608457   0.194650
  3.611037   0.197412
  3.613616   0.198771
  3.616195   0.198674
  3.618775   0.197184
  3.621354   0.194406
  3.623934   0.190406
  3.626513   0.185195
  3.629093   0.178758
  3.631673   0.171125
  3.634252   0.162428
  3.636832   0.152910
  3.639411   0.142905
  3.641990   0.132765
  3.644570   0.122815
  3.647150   0.113308
  3.649729   0.104411
   3.65231    0.09622
   3.65489    0.08877
   3.65747    0.08205
   3.66005    0.07603
   3.66263    0.07066
   3.66521    0.06587
   3.66779    0.06162
   3.67037    0.05784
   3.67294    0.05449
   3.67552    0.05153
   3.67810    0.04891
   3.68068    0.04660
   3.68326    0.04457
   3.68584    0.04279
   3.68842    0.04126
   3.69100    0.03994
   3.69358    0.03883
   3.69616    0.03792
   3.69874    0.03720
   3.70132    0.03666
   3.70390    0.03630
   3.70648    0.03611
   3.70906    0.03610
   3.71164    0.03625
   3.71422    0.03656
   3.71680    0.03700
   3.71938    0.03755
   3.72196    0.03818
   3.72453    0.03886
   3.72711    0.03955
   3.72969    0.04023
   3.73227    0.04091
   3.73485    0.04158
   3.73743    0.04228
   3.74001    0.04303
   3.74259    0.04386
   3.74517    0.04479
   3.74775    0.04580
   3.75033    0.04691
   3.75291    0.04807
   3.75549    0.04929
   3.75807    0.05051
   3.76065    0.05171
   3.76323    0.05280
   3.76581    0.05367
   3.76839    0.05420
   3.77097    0.05425
   3.77355    0.05372
   3.77612    0.05257
   3.77870    0.05083
   3.78128    0.04860
   3.78386    0.04603
   3.78644    0.04326
   3.78902    0.04045
   3.79160    0.03770
   3.79418    0.03508
   3.79676    0.03265
   3.79934    0.03041
   3.80192    0.02838
   3.80450    0.02656
   3.80708    0.02491
   3.80966    0.02345
   3.81224    0.02213
   3.81482    0.02096
   3.81740    0.01991
   3.81998    0.01896
   3.82256    0.01812
   3.82514    0.01736
   3.82772    0.01668
   3.83029    0.01607
   3.83287    0.01552
   3.83545    0.01502
   3.83803    0.01458
   3.84061    0.01417
   3.84319    0.01382
   3.84577    0.01349
   3.84835    0.01321
   3.85093    0.01296
   3.85351    0.01273
   3.85609    0.01254
   3.85867    0.01238
   3.86125    0.01224
   3.86383    0.01213
   3.86641    0.01205
   3.86899    0.01200
   3.87157    0.01198
   3.87415    0.01198
   3.87673    0.01201
   3.87931    0.01208
   3.88189    0.01218
   3.88446    0.01232
   3.88704    0.01250
   3.88962    0.01272
   3.89220    0.01299
   3.89478    0.01331
   3.89736    0.01369
   3.89994    0.01415
   3.90252    0.01467
   3.90510    0.01528
   3.90768    0.01598
   3.91026    0.01679
   3.91284    0.01770
   3.91542    0.01873
   3.91800    0.01987
   3.92058    0.02112
   3.92316    0.02247
   3.92574    0.02386
   3.92832    0.02526
   3.93090    0.02657
   3.93348    0.02771
   3.93605    0.02857
   3.93863    0.02907
   3.94121    0.02914
   3.94379    0.02879
   3.94637    0.02803
   3.94895    0.02697
   3.95153    0.02569
   3.95411    0.02429
   3.95669    0.02287
   3.95927    0.02149
   3.96185    0.02019
   3.96443    0.01899
   3.96701    0.01791
   3.96959    0.01694
   3.97217    0.01610
   3.97475    0.01536
   3.97733    0.01473
   3.97991    0.01419
   3.98249    0.01374
   3.98507    0.01336
   3.98764    0.01306
   3.99022    0.01282
   3.99280    0.01265
   3.99538    0.01253
   3.99796    0.01248
   4.00054    0.01248
   4.00312    0.01254
   4.00570    0.01266
   4.00828    0.01284
   4.01086    0.01309
   4.01344    0.01340
   4.01602    0.01378
   4.01860    0.01424
   4.02118    0.01479
   4.02376    0.01543
   4.02634    0.01617
   4.02892    0.01703
   4.03150    0.01800
   4.03408    0.01908
   4.03666    0.02029
   4.03923    0.02160
   4.04181    0.02299
   4.04439    0.02441
   4.04697    0.02582
   4.04955    0.02711
   4.05213    0.02821
   4.05471    0.02902
   4.05729    0.02947
   4.05987    0.02954
   4.06245    0.02923
   4.06503    0.02862
   4.06761    0.02779
   4.07019    0.02685
   4.07277    0.02588
   4.07535    0.02495
   4.07793    0.02414
   4.08051    0.02346
   4.08309    0.02295
   4.08567    0.02262
   4.08825    0.02248
   4.09083    0.02252
   4.09340    0.02275
   4.09598    0.02316
   4.09856    0.02375
   4.10114    0.02450
   4.10372    0.02539
   4.10630    0.02640
   4.10888    0.02748
   4.11146    0.02860
   4.11404    0.02970
   4.11662    0.03075
   4.11920    0.03173
   4.12178    0.03264
   4.12436    0.03350
   4.12694    0.03432
   4.12952    0.03514
   4.13210    0.03595
   4.13468    0.03673
   4.13726    0.03742
   4.13984    0.03796
   4.14242    0.03830
   4.14499    0.03841
   4.14757    0.03831
   4.15015    0.03803
   4.15273    0.03767
   4.15531    0.03732
   4.15789    0.03706
   4.16047    0.03696
   4.16305    0.03707
   4.16563    0.03738
   4.16821    0.03787
   4.17079    0.03845
   4.17337    0.03904
   4.17595    0.03950
   4.17853    0.03969
   4.18111    0.03950
   4.18369    0.03884
   4.18627    0.03771
   4.18885    0.03614
   4.19143    0.03423
   4.19401    0.03211
   4.19659    0.02989
   4.19916    0.02768
   4.20174    0.02555
   4.20432    0.02354
   4.20690    0.02168
   4.20948    0.01999
   4.21206    0.01846
   4.21464    0.01709
   4.21722    0.01586
   4.21980    0.01475
   4.22238    0.01377
   4.22496    0.01288
   4.22754    0.01209
   4.23012    0.01138
   4.23270    0.01074
   4.23528    0.01016
    4.2379     0.0096
    4.2404     0.0092
    4.2430     0.0087
    4.2456     0.0084
    4.2482     0.0080
    4.2508     0.0077
    4.2533     0.0074
    4.2559     0.0071
    4.2585     0.0069
    4.2611     0.0066
    4.2637     0.0064
    4.2662     0.0062
    4.2688     0.0060
    4.2714     0.0059
    4.2740     0.0057
    4.2765     0.0056
    4.2791     0.0055
    4.2817     0.0053
    4.2843     0.0052
    4.2869     0.0051
    4.2894     0.0050
    4.2920     0.0050
    4.2946     0.0049
    4.2972     0.0048
    4.2998     0.0048
    4.3023     0.0047
    4.3049     0.0047
    4.3075     0.0046
    4.3101     0.0046
    4.3127     0.0046
    4.3152     0.0046
    4.3178     0.0046
    4.3204     0.0046
    4.3230     0.0046
    4.3256     0.0046
    4.3281     0.0047
    4.3307     0.0047
    4.3333     0.0048
    4.3359     0.0049
    4.3385     0.0050
    4.3410     0.0051
    4.3436     0.0053
    4.3462     0.0054
    4.3488     0.0056
    4.3514     0.0058
    4.3539     0.0060
    4.3565     0.0062
    4.3591     0.0064
    4.3617     0.0066
    4.3643     0.0067
    4.3668     0.0068
    4.3694     0.0068
    4.3720     0.0068
    4.3746     0.0067
    4.3772     0.0065
    4.3797     0.0064
    4.3823     0.0062
    4.3849     0.0061
    4.3875     0.0059
    4.3900     0.0058
    4.3926     0.0057
    4.3952     0.0056
    4.3978     0.0056
    4.4004     0.0055
    4.4029     0.0055
    4.4055     0.0056
    4.4081     0.0056
    4.4107     0.0057
    4.4133     0.0058
    4.4158     0.0060
    4.4184     0.0062
    4.4210     0.0064
    4.4236     0.0067
    4.4262     0.0070
    4.4287     0.0073
    4.4313     0.0078
    4.4339     0.0082
    4.4365     0.0088
    4.4391     0.0094
   4.44164    0.01011
   4.44422    0.01090
   4.44680    0.01179
   4.44938    0.01276
   4.45196    0.01382
   4.45454    0.01494
   4.45712    0.01610
   4.45969    0.01722
   4.46227    0.01827
   4.46485    0.01914
   4.46743    0.01977
   4.47001    0.02008
   4.47259    0.02004
   4.47517    0.01965
   4.47775    0.01896
   4.48033    0.01802
   4.48291    0.01692
   4.48549    0.01574
   4.48807    0.01455
   4.49065    0.01338
   4.49323    0.01228
   4.49581    0.01126
   4.49839    0.01033
    4.5010     0.0095
    4.5035     0.0087
    4.5061     0.0081
    4.5087     0.0075
    4.5113     0.0069
    4.5139     0.0065
    4.5164     0.0060
    4.5190     0.0057
    4.5216     0.0053
    4.5242     0.0050
    4.5268     0.0047
  4.529     0.4486E-2
  4.532     0.4261E-2
  4.535     0.4057E-2
  4.537     0.3871E-2
  4.540     0.3702E-2
  4.542     0.3547E-2
  4.545     0.3405E-2
  4.547     0.3275E-2
  4.550     0.3155E-2
  4.553     0.3044E-2
  4.555     0.2941E-2
  4.558     0.2846E-2
  4.560     0.2757E-2
  4.563     0.2675E-2
  4.565     0.2598E-2
  4.568     0.2526E-2
  4.571     0.2459E-2
  4.573     0.2395E-2
  4.576     0.2336E-2
  4.578     0.2280E-2
  4.581     0.2227E-2
  4.584     0.2178E-2
  4.586     0.2131E-2
  4.589     0.2086E-2
  4.591     0.2044E-2
  4.594     0.2004E-2
  4.596     0.1965E-2
  4.599     0.1929E-2
  4.602     0.1894E-2
  4.604     0.1861E-2
  4.607     0.1830E-2
  4.609     0.1800E-2
  4.612     0.1771E-2
  4.614     0.1743E-2
  4.617     0.1717E-2
  4.620     0.1691E-2
  4.622     0.1667E-2
  4.625     0.1643E-2
  4.627     0.1620E-2
  4.630     0.1599E-2
  4.633     0.1577E-2
  4.635     0.1557E-2
  4.638     0.1538E-2
  4.640     0.1519E-2
  4.643     0.1500E-2
  4.645     0.1482E-2
  4.648     0.1465E-2
  4.651     0.1449E-2
  4.653     0.1432E-2
  4.656     0.1417E-2
  4.658     0.1402E-2
  4.661     0.1387E-2
  4.663     0.1372E-2
  4.666     0.1359E-2
  4.669     0.1345E-2
  4.671     0.1332E-2
  4.674     0.1319E-2
  4.676     0.1306E-2
  4.679     0.1294E-2
  4.682     0.1282E-2
  4.684     0.1271E-2
  4.687     0.1259E-2
  4.689     0.1248E-2
  4.692     0.1237E-2
  4.694     0.1227E-2
  4.697     0.1216E-2
  4.700     0.1206E-2
  4.702     0.1196E-2
  4.705     0.1187E-2
  4.707     0.1177E-2
  4.710     0.1168E-2
  4.712     0.1159E-2
  4.715     0.1150E-2
  4.718     0.1141E-2
  4.720     0.1132E-2
  4.723     0.1124E-2
  4.725     0.1116E-2
  4.728     0.1108E-2
  4.731     0.1100E-2
  4.733     0.1092E-2
  4.736     0.1084E-2
  4.738     0.1077E-2
  4.741     0.1069E-2
  4.743     0.1062E-2
  4.746     0.1055E-2
  4.749     0.1048E-2
  4.751     0.1041E-2
  4.754     0.1034E-2
  4.756     0.1027E-2
  4.759     0.1021E-2
  4.761     0.1014E-2
  4.764     0.1008E-2
  4.767     0.1001E-2
  4.769     0.9952E-3
  4.772     0.9891E-3
  4.774     0.9831E-3
  4.777     0.9771E-3
  4.780     0.9713E-3
  4.782     0.9655E-3
  4.785     0.9598E-3
  4.787     0.9542E-3
  4.790     0.9486E-3
  4.792     0.9431E-3
  4.795     0.9377E-3
  4.798     0.9324E-3
  4.800     0.9272E-3
  4.803     0.9220E-3
  4.805     0.9169E-3
  4.808     0.9118E-3
  4.811     0.9068E-3
  4.813     0.9019E-3
  4.816     0.8970E-3
  4.818     0.8922E-3
  4.821     0.8874E-3
  4.823     0.8827E-3
  4.826     0.8781E-3
  4.829     0.8735E-3
  4.831     0.8689E-3
  4.834     0.8644E-3
  4.836     0.8600E-3
  4.839     0.8556E-3
  4.841     0.8513E-3
  4.844     0.8470E-3
  4.847     0.8427E-3
  4.849     0.8385E-3
  4.852     0.8344E-3
  4.854     0.8303E-3
  4.857     0.8262E-3
  4.860     0.8222E-3
  4.862     0.8182E-3
  4.865     0.8143E-3
  4.867     0.8104E-3
  4.870     0.8065E-3
  4.872     0.8027E-3
  4.875     0.7989E-3
  4.878     0.7951E-3
  4.880     0.7914E-3
  4.883     0.7877E-3
  4.885     0.7841E-3
  4.888     0.7805E-3
  4.890     0.7769E-3
  4.893     0.7734E-3
  4.896     0.7699E-3
  4.898     0.7664E-3
  4.901     0.7630E-3
  4.903     0.7595E-3
  4.906     0.7562E-3
  4.909     0.7528E-3
  4.911     0.7495E-3
  4.914     0.7462E-3
  4.916     0.7429E-3
  4.919     0.7397E-3
  4.921     0.7365E-3
  4.924     0.7333E-3
  4.927     0.7302E-3
  4.929     0.7271E-3
  4.932     0.7240E-3
  4.934     0.7209E-3
  4.937     0.7178E-3
  4.939     0.7148E-3
  4.942     0.7118E-3
  4.945     0.7089E-3
  4.947     0.7059E-3
  4.950     0.7030E-3
  4.952     0.7001E-3
  4.955     0.6972E-3
  4.958     0.6944E-3
  4.960     0.6915E-3
  4.963     0.6887E-3
  4.965     0.6859E-3
  4.968     0.6832E-3
  4.970     0.6804E-3
# 
# 05/03/2019 at 10:41 YPP @ login1.stampede2.tacc.utexas.edu [start]
# 05/03/2019 at 10:41                                        [end]
#  
# Timing   [Min/Max/Average]: 04s/04s/04s
#
# .-Input file : amp.in
# | excitons                     # [R] Excitons
# | amplitude                    # [R] Amplitude
# | BoseTemp=  0.02585     eV    # Bosonic Temperature
# | States= "1 - 10"             # Index of the BS state(s)
# | #DipWeight                   #  Weight the contribution to the exciton WFs with the dipoles
# | Degen_Step=0.1000E-4   eV    # Maximum energy separation of two degenerate states
