#                                                           
# ooooo   oooo ..     ooo        ooo ooooooooo.    .oooo.   
#  `88.   .8" .88.    `88.       .88 `88"   `Y8b  dP"  `Yb  
#   `88. .8" .8"88.    888b     d"88  88     888 88      88 
#    `88.8" .8" `88.   8 Y88. .P  88  88oooo888" 88      88 
#     `88" .88ooo888.  8  `888"   88  88    `88b 88      88 
#      88 .8"     `88. 8    Y     88  88    .88P `8b    d8" 
#     o88o88o      888o8          88 o88bood8P"   `Ybod8P"  
#                                                           
#                                                           
#               GPL Version 4.1.4 Revision 76               
#                         MPI Build                         
#                 http://www.yambo-code.org                 
#
# BSK|Identifier              :1891
#    |Dimension               :11943
#    |Bands                   :121 - 172
#    |Exchange           [res]: yes
#    |Correlation        [res]: yes
#    |Kernel`s coupling       : no
#    |Exchange           [cpl]: no
#    |Correlation        [cpl]: no
#    |W interaction is bare   : no
#    |ALDA kernel in R-space  : no
#    |RL vectors    [exchange]:31669
#    |RL vectors [correlation]:387
#    |E/h energy range    [ev]:-1.000000 - -1.000000
#    |Coupling range     [o/o]: 100.0000 -  100.0000
#  W |Interaction is diagonal : no
#    |Matrix size             :2845
#    |Bands                   :1 - 570
#    |e/h energy range    [ev]:-1.000000 - -1.000000
#    |Poles              [o/o]: 100.0000
#    |RL vectors in the sum   :31669
#    |[r,Vnl] included        : yes
#    |Field direction         :-.8660E-5 0.5000E-5  0.000000
#    |Coulomb Cutoff          :box z
#    |xc-Kernel               :none
# RIM|RL components      [col]:0
#    |Random points      [col]:0
#
# Electron-Hole pairs that contributes to Excitonic State 2 more than 5%
#
#  E    [eV]  Amplitude
#  
  1.516     0.6138E-3
  1.517     0.6162E-3
  1.518     0.6187E-3
  1.519     0.6212E-3
  1.520     0.6237E-3
  1.521     0.6262E-3
  1.522     0.6287E-3
  1.523     0.6312E-3
  1.524     0.6338E-3
  1.525     0.6364E-3
  1.526     0.6389E-3
  1.527     0.6415E-3
  1.528     0.6442E-3
  1.530     0.6468E-3
  1.531     0.6494E-3
  1.532     0.6521E-3
  1.533     0.6548E-3
  1.534     0.6575E-3
  1.535     0.6602E-3
  1.536     0.6629E-3
  1.537     0.6657E-3
  1.538     0.6684E-3
  1.539     0.6712E-3
  1.540     0.6740E-3
  1.541     0.6768E-3
  1.542     0.6797E-3
  1.543     0.6825E-3
  1.544     0.6854E-3
  1.545     0.6883E-3
  1.546     0.6912E-3
  1.547     0.6941E-3
  1.548     0.6971E-3
  1.549     0.7000E-3
  1.550     0.7030E-3
  1.551     0.7060E-3
  1.552     0.7090E-3
  1.553     0.7121E-3
  1.554     0.7151E-3
  1.555     0.7182E-3
  1.556     0.7213E-3
  1.557     0.7244E-3
  1.558     0.7276E-3
  1.559     0.7307E-3
  1.560     0.7339E-3
  1.561     0.7371E-3
  1.562     0.7403E-3
  1.563     0.7436E-3
  1.564     0.7468E-3
  1.565     0.7501E-3
  1.566     0.7534E-3
  1.567     0.7568E-3
  1.569     0.7601E-3
  1.570     0.7635E-3
  1.571     0.7669E-3
  1.572     0.7703E-3
  1.573     0.7738E-3
  1.574     0.7772E-3
  1.575     0.7807E-3
  1.576     0.7842E-3
  1.577     0.7878E-3
  1.578     0.7913E-3
  1.579     0.7949E-3
  1.580     0.7985E-3
  1.581     0.8022E-3
  1.582     0.8058E-3
  1.583     0.8095E-3
  1.584     0.8132E-3
  1.585     0.8169E-3
  1.586     0.8207E-3
  1.587     0.8245E-3
  1.588     0.8283E-3
  1.589     0.8321E-3
  1.590     0.8360E-3
  1.591     0.8399E-3
  1.592     0.8438E-3
  1.593     0.8478E-3
  1.594     0.8518E-3
  1.595     0.8558E-3
  1.596     0.8598E-3
  1.597     0.8639E-3
  1.598     0.8679E-3
  1.599     0.8721E-3
  1.600     0.8762E-3
  1.601     0.8804E-3
  1.602     0.8846E-3
  1.603     0.8888E-3
  1.604     0.8931E-3
  1.605     0.8974E-3
  1.607     0.9017E-3
  1.608     0.9061E-3
  1.609     0.9105E-3
  1.610     0.9149E-3
  1.611     0.9194E-3
  1.612     0.9239E-3
  1.613     0.9284E-3
  1.614     0.9330E-3
  1.615     0.9375E-3
  1.616     0.9422E-3
  1.617     0.9468E-3
  1.618     0.9515E-3
  1.619     0.9563E-3
  1.620     0.9610E-3
  1.621     0.9658E-3
  1.622     0.9707E-3
  1.623     0.9755E-3
  1.624     0.9804E-3
  1.625     0.9854E-3
  1.626     0.9904E-3
  1.627     0.9954E-3
  1.628     0.1000E-2
  1.629     0.1006E-2
  1.630     0.1011E-2
  1.631     0.1016E-2
  1.632     0.1021E-2
  1.633     0.1026E-2
  1.634     0.1032E-2
  1.635     0.1037E-2
  1.636     0.1042E-2
  1.637     0.1048E-2
  1.638     0.1053E-2
  1.639     0.1059E-2
  1.640     0.1064E-2
  1.641     0.1070E-2
  1.642     0.1076E-2
  1.643     0.1081E-2
  1.645     0.1087E-2
  1.646     0.1093E-2
  1.647     0.1099E-2
  1.648     0.1104E-2
  1.649     0.1110E-2
  1.650     0.1116E-2
  1.651     0.1122E-2
  1.652     0.1128E-2
  1.653     0.1135E-2
  1.654     0.1141E-2
  1.655     0.1147E-2
  1.656     0.1153E-2
  1.657     0.1159E-2
  1.658     0.1166E-2
  1.659     0.1172E-2
  1.660     0.1179E-2
  1.661     0.1185E-2
  1.662     0.1192E-2
  1.663     0.1198E-2
  1.664     0.1205E-2
  1.665     0.1212E-2
  1.666     0.1219E-2
  1.667     0.1226E-2
  1.668     0.1232E-2
  1.669     0.1239E-2
  1.670     0.1246E-2
  1.671     0.1254E-2
  1.672     0.1261E-2
  1.673     0.1268E-2
  1.674     0.1275E-2
  1.675     0.1283E-2
  1.676     0.1290E-2
  1.677     0.1297E-2
  1.678     0.1305E-2
  1.679     0.1313E-2
  1.680     0.1320E-2
  1.681     0.1328E-2
  1.682     0.1336E-2
  1.684     0.1344E-2
  1.685     0.1352E-2
  1.686     0.1360E-2
  1.687     0.1368E-2
  1.688     0.1376E-2
  1.689     0.1384E-2
  1.690     0.1392E-2
  1.691     0.1401E-2
  1.692     0.1409E-2
  1.693     0.1418E-2
  1.694     0.1426E-2
  1.695     0.1435E-2
  1.696     0.1444E-2
  1.697     0.1453E-2
  1.698     0.1462E-2
  1.699     0.1471E-2
  1.700     0.1480E-2
  1.701     0.1489E-2
  1.702     0.1498E-2
  1.703     0.1508E-2
  1.704     0.1517E-2
  1.705     0.1527E-2
  1.706     0.1536E-2
  1.707     0.1546E-2
  1.708     0.1556E-2
  1.709     0.1566E-2
  1.710     0.1576E-2
  1.711     0.1586E-2
  1.712     0.1596E-2
  1.713     0.1606E-2
  1.714     0.1617E-2
  1.715     0.1627E-2
  1.716     0.1638E-2
  1.717     0.1648E-2
  1.718     0.1659E-2
  1.719     0.1670E-2
  1.720     0.1681E-2
  1.722     0.1692E-2
  1.723     0.1703E-2
  1.724     0.1715E-2
    1.7246     0.0017
    1.7256     0.0017
    1.7266     0.0017
    1.7277     0.0018
    1.7287     0.0018
    1.7297     0.0018
    1.7308     0.0018
    1.7318     0.0018
    1.7328     0.0018
    1.7338     0.0018
    1.7349     0.0018
    1.7359     0.0019
    1.7369     0.0019
    1.7379     0.0019
    1.7390     0.0019
    1.7400     0.0019
    1.7410     0.0019
    1.7420     0.0019
    1.7431     0.0020
    1.7441     0.0020
    1.7451     0.0020
    1.7462     0.0020
    1.7472     0.0020
    1.7482     0.0020
    1.7492     0.0020
    1.7503     0.0021
    1.7513     0.0021
    1.7523     0.0021
    1.7533     0.0021
    1.7544     0.0021
    1.7554     0.0021
    1.7564     0.0021
    1.7574     0.0022
    1.7585     0.0022
    1.7595     0.0022
    1.7605     0.0022
    1.7616     0.0022
    1.7626     0.0022
    1.7636     0.0023
    1.7646     0.0023
    1.7657     0.0023
    1.7667     0.0023
    1.7677     0.0023
    1.7687     0.0024
    1.7698     0.0024
    1.7708     0.0024
    1.7718     0.0024
    1.7728     0.0024
    1.7739     0.0024
    1.7749     0.0025
    1.7759     0.0025
    1.7770     0.0025
    1.7780     0.0025
    1.7790     0.0025
    1.7800     0.0026
    1.7811     0.0026
    1.7821     0.0026
    1.7831     0.0026
    1.7841     0.0027
    1.7852     0.0027
    1.7862     0.0027
    1.7872     0.0027
    1.7883     0.0027
    1.7893     0.0028
    1.7903     0.0028
    1.7913     0.0028
    1.7924     0.0028
    1.7934     0.0029
    1.7944     0.0029
    1.7954     0.0029
    1.7965     0.0029
    1.7975     0.0030
    1.7985     0.0030
    1.7995     0.0030
    1.8006     0.0030
    1.8016     0.0031
    1.8026     0.0031
    1.8037     0.0031
    1.8047     0.0032
    1.8057     0.0032
    1.8067     0.0032
    1.8078     0.0032
    1.8088     0.0033
    1.8098     0.0033
    1.8108     0.0033
    1.8119     0.0034
    1.8129     0.0034
    1.8139     0.0034
    1.8149     0.0035
    1.8160     0.0035
    1.8170     0.0035
    1.8180     0.0036
    1.8191     0.0036
    1.8201     0.0036
    1.8211     0.0037
    1.8221     0.0037
    1.8232     0.0037
    1.8242     0.0038
    1.8252     0.0038
    1.8262     0.0039
    1.8273     0.0039
    1.8283     0.0039
    1.8293     0.0040
    1.8303     0.0040
    1.8314     0.0041
    1.8324     0.0041
    1.8334     0.0041
    1.8345     0.0042
    1.8355     0.0042
    1.8365     0.0043
    1.8375     0.0043
    1.8386     0.0044
    1.8396     0.0044
    1.8406     0.0045
    1.8416     0.0045
    1.8427     0.0046
    1.8437     0.0046
    1.8447     0.0047
    1.8457     0.0047
    1.8468     0.0048
    1.8478     0.0048
    1.8488     0.0049
    1.8499     0.0049
    1.8509     0.0050
    1.8519     0.0050
    1.8529     0.0051
    1.8540     0.0051
    1.8550     0.0052
    1.8560     0.0053
    1.8570     0.0053
    1.8581     0.0054
    1.8591     0.0055
    1.8601     0.0055
    1.8612     0.0056
    1.8622     0.0057
    1.8632     0.0057
    1.8642     0.0058
    1.8653     0.0059
    1.8663     0.0059
    1.8673     0.0060
    1.8683     0.0061
    1.8694     0.0062
    1.8704     0.0062
    1.8714     0.0063
    1.8724     0.0064
    1.8735     0.0065
    1.8745     0.0066
    1.8755     0.0067
    1.8766     0.0068
    1.8776     0.0068
    1.8786     0.0069
    1.8796     0.0070
    1.8807     0.0071
    1.8817     0.0072
    1.8827     0.0073
    1.8837     0.0074
    1.8848     0.0075
    1.8858     0.0076
    1.8868     0.0077
    1.8878     0.0079
    1.8889     0.0080
    1.8899     0.0081
    1.8909     0.0082
    1.8920     0.0083
    1.8930     0.0085
    1.8940     0.0086
    1.8950     0.0087
    1.8961     0.0088
    1.8971     0.0090
    1.8981     0.0091
    1.8991     0.0093
    1.9002     0.0094
    1.9012     0.0096
    1.9022     0.0097
    1.9032     0.0099
   1.90428    0.01003
   1.90530    0.01019
   1.90633    0.01036
   1.90736    0.01053
   1.90838    0.01071
   1.90941    0.01089
   1.91044    0.01108
   1.91146    0.01127
   1.91249    0.01146
   1.91352    0.01167
   1.91454    0.01187
   1.91557    0.01208
   1.91660    0.01230
   1.91762    0.01253
   1.91865    0.01276
   1.91968    0.01299
   1.92070    0.01324
   1.92173    0.01349
   1.92276    0.01374
   1.92378    0.01401
   1.92481    0.01428
   1.92584    0.01456
   1.92687    0.01485
   1.92789    0.01515
   1.92892    0.01546
   1.92995    0.01578
   1.93097    0.01610
   1.93200    0.01644
   1.93303    0.01679
   1.93405    0.01715
   1.93508    0.01752
   1.93611    0.01790
   1.93713    0.01830
   1.93816    0.01871
   1.93919    0.01913
   1.94021    0.01957
   1.94124    0.02002
   1.94227    0.02049
   1.94329    0.02098
   1.94432    0.02148
   1.94535    0.02201
   1.94637    0.02255
   1.94740    0.02311
   1.94843    0.02370
   1.94945    0.02431
   1.95048    0.02494
   1.95151    0.02560
   1.95253    0.02628
   1.95356    0.02699
   1.95459    0.02773
   1.95562    0.02851
   1.95664    0.02931
   1.95767    0.03015
   1.95870    0.03103
   1.95972    0.03195
   1.96075    0.03291
   1.96178    0.03392
   1.96280    0.03497
   1.96383    0.03607
   1.96486    0.03723
   1.96588    0.03845
   1.96691    0.03972
   1.96794    0.04107
   1.96896    0.04248
   1.96999    0.04397
   1.97102    0.04554
   1.97204    0.04720
   1.97307    0.04895
   1.97410    0.05081
   1.97512    0.05277
   1.97615    0.05485
   1.97718    0.05706
   1.97820    0.05941
   1.97923    0.06191
   1.98026    0.06458
   1.98128    0.06743
   1.98231    0.07047
   1.98334    0.07373
   1.98436    0.07723
   1.98539    0.08099
   1.98642    0.08504
   1.98745    0.08940
   1.98847    0.09412
   1.98950    0.09923
  1.990525   0.104770
  1.991552   0.110798
  1.992579   0.117370
  1.993606   0.124548
  1.994633   0.132411
  1.995659   0.141042
  1.996686   0.150541
  1.997713   0.161017
  1.998740   0.172601
  1.999766   0.185432
  2.000793   0.199674
  2.001820   0.215498
  2.002847   0.233102
  2.003874   0.252673
  2.004900   0.274412
  2.005927   0.298477
  2.006954   0.324988
  2.007981   0.353947
  2.009008   0.385215
  2.010034   0.418401
  2.011061   0.452840
  2.012088   0.487538
  2.013115   0.521201
  2.014141   0.552394
  2.015168   0.579831
  2.016195   0.602657
  2.017222   0.620763
  2.018249   0.634867
  2.019275   0.646376
  2.020302   0.657094
  2.021329   0.668864
  2.022356   0.683261
  2.023382   0.701381
  2.024409   0.723750
  2.025436   0.750255
  2.026463   0.780147
  2.027489   0.812118
  2.028516   0.844447
  2.029543   0.875238
  2.030570   0.902819
  2.031596   0.926040
  2.032623   0.944541
  2.033650   0.958730
  2.034677   0.969604
  2.035704   0.978358
  2.036731   0.985947
  2.037757   0.992668
  2.038784   0.997889
  2.039811   1.000000
  2.040838   0.996680
  2.041864   0.985434
  2.042891   0.964288
  2.043918   0.932428
  2.044945   0.890454
  2.045971   0.840279
  2.046998   0.784566
  2.048025   0.726199
  2.049052   0.667714
  2.050079   0.611112
  2.051105   0.557708
  2.052132   0.508288
  2.053159   0.463151
  2.054186   0.422327
  2.055212   0.385613
  2.056239   0.352731
  2.057266   0.323331
  2.058293   0.297053
  2.059320   0.273561
  2.060346   0.252539
  2.061373   0.233690
  2.062400   0.216763
  2.063426   0.201525
  2.064453   0.187773
  2.065480   0.175335
  2.066507   0.164060
  2.067534   0.153813
  2.068561   0.144476
  2.069587   0.135951
  2.070614   0.128147
  2.071641   0.120990
  2.072668   0.114409
  2.073694   0.108347
  2.074721   0.102751
   2.07575    0.09758
   2.07677    0.09278
   2.07780    0.08833
   2.07883    0.08419
   2.07985    0.08034
   2.08088    0.07674
   2.08191    0.07338
   2.08294    0.07024
   2.08396    0.06730
   2.08499    0.06453
   2.08602    0.06194
   2.08704    0.05949
   2.08807    0.05720
   2.08910    0.05503
   2.09012    0.05298
   2.09115    0.05105
   2.09218    0.04922
   2.09320    0.04748
   2.09423    0.04584
   2.09526    0.04428
   2.09628    0.04280
   2.09731    0.04140
   2.09834    0.04006
   2.09936    0.03878
   2.10039    0.03757
   2.10142    0.03641
   2.10244    0.03531
   2.10347    0.03426
   2.10450    0.03325
   2.10552    0.03228
   2.10655    0.03136
   2.10758    0.03048
   2.10860    0.02963
   2.10963    0.02882
   2.11066    0.02804
   2.11169    0.02730
   2.11271    0.02658
   2.11374    0.02589
   2.11477    0.02523
   2.11579    0.02459
   2.11682    0.02398
   2.11785    0.02339
   2.11887    0.02282
   2.11990    0.02227
   2.12093    0.02174
   2.12195    0.02123
   2.12298    0.02074
   2.12401    0.02026
   2.12503    0.01980
   2.12606    0.01936
   2.12709    0.01893
   2.12811    0.01852
   2.12914    0.01811
   2.13017    0.01773
   2.13119    0.01735
   2.13222    0.01699
   2.13325    0.01663
   2.13427    0.01629
   2.13530    0.01596
   2.13633    0.01564
   2.13735    0.01533
   2.13838    0.01503
   2.13941    0.01473
   2.14043    0.01445
   2.14146    0.01417
   2.14249    0.01390
   2.14352    0.01364
   2.14454    0.01339
   2.14557    0.01314
   2.14660    0.01290
   2.14762    0.01267
   2.14865    0.01244
   2.14968    0.01222
   2.15070    0.01201
   2.15173    0.01180
   2.15276    0.01159
   2.15378    0.01139
   2.15481    0.01120
   2.15584    0.01101
   2.15686    0.01083
   2.15789    0.01065
   2.15892    0.01047
   2.15994    0.01030
   2.16097    0.01013
    2.1620     0.0100
    2.1630     0.0098
    2.1641     0.0097
    2.1651     0.0095
    2.1661     0.0094
    2.1671     0.0092
    2.1682     0.0091
    2.1692     0.0089
    2.1702     0.0088
    2.1712     0.0087
    2.1723     0.0085
    2.1733     0.0084
    2.1743     0.0083
    2.1753     0.0082
    2.1764     0.0081
    2.1774     0.0079
    2.1784     0.0078
    2.1795     0.0077
    2.1805     0.0076
    2.1815     0.0075
    2.1825     0.0074
    2.1836     0.0073
    2.1846     0.0072
    2.1856     0.0071
    2.1866     0.0070
    2.1877     0.0069
    2.1887     0.0068
    2.1897     0.0067
    2.1907     0.0066
    2.1918     0.0066
    2.1928     0.0065
    2.1938     0.0064
    2.1949     0.0063
    2.1959     0.0062
    2.1969     0.0061
    2.1979     0.0061
    2.1990     0.0060
    2.2000     0.0059
    2.2010     0.0058
    2.2020     0.0058
    2.2031     0.0057
    2.2041     0.0056
    2.2051     0.0056
    2.2061     0.0055
    2.2072     0.0054
    2.2082     0.0054
    2.2092     0.0053
    2.2103     0.0053
    2.2113     0.0052
    2.2123     0.0051
    2.2133     0.0051
    2.2144     0.0050
    2.2154     0.0050
    2.2164     0.0049
    2.2174     0.0048
    2.2185     0.0048
    2.2195     0.0047
    2.2205     0.0047
    2.2216     0.0046
    2.2226     0.0046
    2.2236     0.0045
    2.2246     0.0045
    2.2257     0.0044
    2.2267     0.0044
    2.2277     0.0043
    2.2287     0.0043
    2.2298     0.0043
    2.2308     0.0042
    2.2318     0.0042
    2.2328     0.0041
    2.2339     0.0041
    2.2349     0.0040
    2.2359     0.0040
    2.2370     0.0040
    2.2380     0.0039
    2.2390     0.0039
    2.2400     0.0038
    2.2411     0.0038
    2.2421     0.0038
    2.2431     0.0037
    2.2441     0.0037
    2.2452     0.0037
    2.2462     0.0036
    2.2472     0.0036
    2.2482     0.0036
    2.2493     0.0035
    2.2503     0.0035
    2.2513     0.0035
    2.2524     0.0034
    2.2534     0.0034
    2.2544     0.0034
    2.2554     0.0033
    2.2565     0.0033
    2.2575     0.0033
    2.2585     0.0032
    2.2595     0.0032
    2.2606     0.0032
    2.2616     0.0031
    2.2626     0.0031
    2.2636     0.0031
    2.2647     0.0031
    2.2657     0.0030
    2.2667     0.0030
    2.2678     0.0030
    2.2688     0.0030
    2.2698     0.0029
    2.2708     0.0029
    2.2719     0.0029
    2.2729     0.0029
    2.2739     0.0028
    2.2749     0.0028
    2.2760     0.0028
    2.2770     0.0028
    2.2780     0.0027
    2.2790     0.0027
    2.2801     0.0027
    2.2811     0.0027
    2.2821     0.0026
    2.2832     0.0026
    2.2842     0.0026
    2.2852     0.0026
    2.2862     0.0026
    2.2873     0.0025
    2.2883     0.0025
    2.2893     0.0025
    2.2903     0.0025
    2.2914     0.0025
    2.2924     0.0024
    2.2934     0.0024
    2.2945     0.0024
    2.2955     0.0024
    2.2965     0.0024
    2.2975     0.0023
    2.2986     0.0023
    2.2996     0.0023
  2.301     0.2295E-2
  2.302     0.2278E-2
  2.303     0.2260E-2
  2.304     0.2243E-2
  2.305     0.2226E-2
  2.306     0.2209E-2
  2.307     0.2193E-2
  2.308     0.2176E-2
  2.309     0.2160E-2
  2.310     0.2144E-2
  2.311     0.2128E-2
  2.312     0.2113E-2
  2.313     0.2097E-2
  2.314     0.2082E-2
  2.315     0.2067E-2
  2.316     0.2052E-2
  2.317     0.2037E-2
  2.318     0.2022E-2
  2.319     0.2008E-2
  2.320     0.1993E-2
  2.321     0.1979E-2
  2.322     0.1965E-2
  2.323     0.1951E-2
  2.324     0.1937E-2
  2.325     0.1924E-2
  2.326     0.1910E-2
  2.327     0.1897E-2
  2.328     0.1884E-2
  2.329     0.1871E-2
  2.330     0.1858E-2
  2.331     0.1845E-2
  2.332     0.1832E-2
  2.333     0.1820E-2
  2.334     0.1807E-2
  2.336     0.1795E-2
  2.337     0.1783E-2
  2.338     0.1771E-2
  2.339     0.1759E-2
  2.340     0.1747E-2
  2.341     0.1735E-2
  2.342     0.1724E-2
  2.343     0.1712E-2
  2.344     0.1701E-2
  2.345     0.1690E-2
  2.346     0.1679E-2
  2.347     0.1668E-2
  2.348     0.1657E-2
  2.349     0.1646E-2
  2.350     0.1635E-2
  2.351     0.1625E-2
  2.352     0.1614E-2
  2.353     0.1604E-2
  2.354     0.1594E-2
  2.355     0.1584E-2
  2.356     0.1574E-2
  2.357     0.1564E-2
  2.358     0.1554E-2
  2.359     0.1544E-2
  2.360     0.1534E-2
  2.361     0.1525E-2
  2.362     0.1515E-2
  2.363     0.1506E-2
  2.364     0.1496E-2
  2.365     0.1487E-2
  2.366     0.1478E-2
  2.367     0.1469E-2
  2.368     0.1460E-2
  2.369     0.1451E-2
  2.370     0.1442E-2
  2.371     0.1433E-2
  2.372     0.1425E-2
  2.374     0.1416E-2
  2.375     0.1408E-2
  2.376     0.1399E-2
  2.377     0.1391E-2
  2.378     0.1382E-2
  2.379     0.1374E-2
  2.380     0.1366E-2
  2.381     0.1358E-2
  2.382     0.1350E-2
  2.383     0.1342E-2
  2.384     0.1334E-2
  2.385     0.1326E-2
  2.386     0.1319E-2
  2.387     0.1311E-2
  2.388     0.1303E-2
  2.389     0.1296E-2
  2.390     0.1288E-2
  2.391     0.1281E-2
  2.392     0.1274E-2
  2.393     0.1266E-2
  2.394     0.1259E-2
  2.395     0.1252E-2
  2.396     0.1245E-2
  2.397     0.1238E-2
  2.398     0.1231E-2
  2.399     0.1224E-2
  2.400     0.1217E-2
  2.401     0.1211E-2
  2.402     0.1204E-2
  2.403     0.1197E-2
  2.404     0.1190E-2
  2.405     0.1184E-2
  2.406     0.1177E-2
  2.407     0.1171E-2
  2.408     0.1165E-2
  2.409     0.1158E-2
  2.410     0.1152E-2
  2.412     0.1146E-2
  2.413     0.1139E-2
  2.414     0.1133E-2
  2.415     0.1127E-2
  2.416     0.1121E-2
  2.417     0.1115E-2
  2.418     0.1109E-2
  2.419     0.1103E-2
  2.420     0.1097E-2
  2.421     0.1092E-2
  2.422     0.1086E-2
  2.423     0.1080E-2
  2.424     0.1074E-2
  2.425     0.1069E-2
  2.426     0.1063E-2
  2.427     0.1058E-2
  2.428     0.1052E-2
  2.429     0.1047E-2
  2.430     0.1041E-2
  2.431     0.1036E-2
  2.432     0.1031E-2
  2.433     0.1025E-2
  2.434     0.1020E-2
  2.435     0.1015E-2
  2.436     0.1010E-2
  2.437     0.1005E-2
  2.438     0.9994E-3
  2.439     0.9944E-3
  2.440     0.9894E-3
  2.441     0.9844E-3
  2.442     0.9795E-3
  2.443     0.9746E-3
  2.444     0.9697E-3
  2.445     0.9649E-3
  2.446     0.9601E-3
  2.447     0.9553E-3
  2.448     0.9506E-3
  2.449     0.9459E-3
  2.451     0.9413E-3
  2.452     0.9366E-3
  2.453     0.9320E-3
  2.454     0.9275E-3
  2.455     0.9230E-3
  2.456     0.9185E-3
  2.457     0.9140E-3
  2.458     0.9096E-3
  2.459     0.9052E-3
  2.460     0.9009E-3
  2.461     0.8966E-3
  2.462     0.8923E-3
  2.463     0.8880E-3
  2.464     0.8838E-3
  2.465     0.8796E-3
  2.466     0.8754E-3
  2.467     0.8712E-3
  2.468     0.8671E-3
  2.469     0.8631E-3
  2.470     0.8590E-3
  2.471     0.8550E-3
  2.472     0.8510E-3
  2.473     0.8470E-3
  2.474     0.8431E-3
  2.475     0.8391E-3
  2.476     0.8353E-3
  2.477     0.8314E-3
  2.478     0.8276E-3
  2.479     0.8237E-3
  2.480     0.8200E-3
  2.481     0.8162E-3
  2.482     0.8125E-3
  2.483     0.8088E-3
  2.484     0.8051E-3
  2.485     0.8014E-3
  2.486     0.7978E-3
  2.487     0.7942E-3
  2.489     0.7906E-3
  2.490     0.7871E-3
  2.491     0.7835E-3
  2.492     0.7800E-3
  2.493     0.7765E-3
  2.494     0.7731E-3
  2.495     0.7696E-3
  2.496     0.7662E-3
  2.497     0.7628E-3
  2.498     0.7595E-3
  2.499     0.7561E-3
  2.500     0.7528E-3
  2.501     0.7495E-3
  2.502     0.7462E-3
  2.503     0.7429E-3
  2.504     0.7397E-3
  2.505     0.7365E-3
  2.506     0.7333E-3
  2.507     0.7301E-3
  2.508     0.7270E-3
  2.509     0.7238E-3
  2.510     0.7207E-3
  2.511     0.7176E-3
  2.512     0.7145E-3
  2.513     0.7115E-3
  2.514     0.7084E-3
  2.515     0.7054E-3
  2.516     0.7024E-3
  2.517     0.6994E-3
  2.518     0.6965E-3
  2.519     0.6935E-3
  2.520     0.6906E-3
  2.521     0.6877E-3
  2.522     0.6848E-3
  2.523     0.6820E-3
  2.524     0.6791E-3
  2.525     0.6763E-3
  2.527     0.6735E-3
  2.528     0.6707E-3
  2.529     0.6679E-3
  2.530     0.6651E-3
  2.531     0.6624E-3
  2.532     0.6597E-3
  2.533     0.6570E-3
  2.534     0.6543E-3
  2.535     0.6516E-3
  2.536     0.6489E-3
  2.537     0.6463E-3
  2.538     0.6436E-3
  2.539     0.6410E-3
  2.540     0.6384E-3
  2.541     0.6359E-3
  2.542     0.6333E-3
# 
# 05/03/2019 at 10:41 YPP @ login1.stampede2.tacc.utexas.edu [start]
# 05/03/2019 at 10:41                                        [end]
#  
# Timing   [Min/Max/Average]: 04s/04s/04s
#
# .-Input file : amp.in
# | excitons                     # [R] Excitons
# | amplitude                    # [R] Amplitude
# | BoseTemp=  0.02585     eV    # Bosonic Temperature
# | States= "1 - 10"             # Index of the BS state(s)
# | #DipWeight                   #  Weight the contribution to the exciton WFs with the dipoles
# | Degen_Step=0.1000E-4   eV    # Maximum energy separation of two degenerate states
