#                                                           
# ooooo   oooo ..     ooo        ooo ooooooooo.    .oooo.   
#  `88.   .8" .88.    `88.       .88 `88"   `Y8b  dP"  `Yb  
#   `88. .8" .8"88.    888b     d"88  88     888 88      88 
#    `88.8" .8" `88.   8 Y88. .P  88  88oooo888" 88      88 
#     `88" .88ooo888.  8  `888"   88  88    `88b 88      88 
#      88 .8"     `88. 8    Y     88  88    .88P `8b    d8" 
#     o88o88o      888o8          88 o88bood8P"   `Ybod8P"  
#                                                           
#                                                           
#               GPL Version 4.1.4 Revision 76               
#                         MPI Build                         
#                 http://www.yambo-code.org                 
#
# BSK|Identifier              :1891
#    |Dimension               :11943
#    |Bands                   :121 - 172
#    |Exchange           [res]: yes
#    |Correlation        [res]: yes
#    |Kernel`s coupling       : no
#    |Exchange           [cpl]: no
#    |Correlation        [cpl]: no
#    |W interaction is bare   : no
#    |ALDA kernel in R-space  : no
#    |RL vectors    [exchange]:31669
#    |RL vectors [correlation]:387
#    |E/h energy range    [ev]:-1.000000 - -1.000000
#    |Coupling range     [o/o]: 100.0000 -  100.0000
#  W |Interaction is diagonal : no
#    |Matrix size             :2845
#    |Bands                   :1 - 570
#    |e/h energy range    [ev]:-1.000000 - -1.000000
#    |Poles              [o/o]: 100.0000
#    |RL vectors in the sum   :31669
#    |[r,Vnl] included        : yes
#    |Field direction         :-.8660E-5 0.5000E-5  0.000000
#    |Coulomb Cutoff          :box z
#    |xc-Kernel               :none
# RIM|RL components      [col]:0
#    |Random points      [col]:0
#
# Electron-Hole pairs that contributes to Excitonic State 4 more than 5%
#
#  E    [eV]  Amplitude
#  
    2.3425     0.0035
    2.3450     0.0035
    2.3474     0.0035
    2.3499     0.0036
    2.3523     0.0036
    2.3548     0.0036
    2.3572     0.0037
    2.3596     0.0037
    2.3621     0.0037
    2.3645     0.0037
    2.3670     0.0038
    2.3694     0.0038
    2.3719     0.0038
    2.3743     0.0039
    2.3767     0.0039
    2.3792     0.0039
    2.3816     0.0040
    2.3841     0.0040
    2.3865     0.0040
    2.3890     0.0041
    2.3914     0.0041
    2.3938     0.0041
    2.3963     0.0042
    2.3987     0.0042
    2.4012     0.0042
    2.4036     0.0043
    2.4060     0.0043
    2.4085     0.0044
    2.4109     0.0044
    2.4134     0.0044
    2.4158     0.0045
    2.4183     0.0045
    2.4207     0.0046
    2.4231     0.0046
    2.4256     0.0046
    2.4280     0.0047
    2.4305     0.0047
    2.4329     0.0048
    2.4354     0.0048
    2.4378     0.0049
    2.4402     0.0049
    2.4427     0.0050
    2.4451     0.0050
    2.4476     0.0050
    2.4500     0.0051
    2.4525     0.0051
    2.4549     0.0052
    2.4573     0.0052
    2.4598     0.0053
    2.4622     0.0054
    2.4647     0.0054
    2.4671     0.0055
    2.4696     0.0055
    2.4720     0.0056
    2.4744     0.0056
    2.4769     0.0057
    2.4793     0.0057
    2.4818     0.0058
    2.4842     0.0059
    2.4867     0.0059
    2.4891     0.0060
    2.4915     0.0060
    2.4940     0.0061
    2.4964     0.0062
    2.4989     0.0062
    2.5013     0.0063
    2.5037     0.0064
    2.5062     0.0065
    2.5086     0.0065
    2.5111     0.0066
    2.5135     0.0067
    2.5160     0.0067
    2.5184     0.0068
    2.5208     0.0069
    2.5233     0.0070
    2.5257     0.0071
    2.5282     0.0071
    2.5306     0.0072
    2.5331     0.0073
    2.5355     0.0074
    2.5379     0.0075
    2.5404     0.0076
    2.5428     0.0077
    2.5453     0.0078
    2.5477     0.0079
    2.5502     0.0080
    2.5526     0.0081
    2.5550     0.0082
    2.5575     0.0083
    2.5599     0.0084
    2.5624     0.0085
    2.5648     0.0086
    2.5673     0.0087
    2.5697     0.0088
    2.5721     0.0089
    2.5746     0.0090
    2.5770     0.0092
    2.5795     0.0093
    2.5819     0.0094
    2.5844     0.0095
    2.5868     0.0097
    2.5892     0.0098
    2.5917     0.0099
   2.59412    0.01009
   2.59656    0.01023
   2.59901    0.01038
   2.60145    0.01053
   2.60389    0.01068
   2.60633    0.01084
   2.60878    0.01100
   2.61122    0.01117
   2.61366    0.01134
   2.61610    0.01151
   2.61855    0.01169
   2.62099    0.01187
   2.62343    0.01205
   2.62587    0.01225
   2.62832    0.01244
   2.63076    0.01264
   2.63320    0.01285
   2.63564    0.01306
   2.63809    0.01328
   2.64053    0.01350
   2.64297    0.01373
   2.64541    0.01397
   2.64786    0.01421
   2.65030    0.01446
   2.65274    0.01471
   2.65518    0.01498
   2.65763    0.01525
   2.66007    0.01553
   2.66251    0.01581
   2.66495    0.01611
   2.66740    0.01641
   2.66984    0.01673
   2.67228    0.01705
   2.67472    0.01738
   2.67717    0.01773
   2.67961    0.01809
   2.68205    0.01845
   2.68449    0.01883
   2.68694    0.01923
   2.68938    0.01963
   2.69182    0.02005
   2.69426    0.02049
   2.69671    0.02094
   2.69915    0.02141
   2.70159    0.02189
   2.70403    0.02239
   2.70648    0.02292
   2.70892    0.02346
   2.71136    0.02402
   2.71380    0.02461
   2.71625    0.02522
   2.71869    0.02586
   2.72113    0.02652
   2.72357    0.02721
   2.72602    0.02794
   2.72846    0.02869
   2.73090    0.02948
   2.73334    0.03031
   2.73579    0.03118
   2.73823    0.03209
   2.74067    0.03305
   2.74311    0.03405
   2.74556    0.03511
   2.74800    0.03623
   2.75044    0.03740
   2.75288    0.03865
   2.75533    0.03996
   2.75777    0.04136
   2.76021    0.04284
   2.76265    0.04441
   2.76510    0.04609
   2.76754    0.04787
   2.76998    0.04978
   2.77242    0.05183
   2.77487    0.05402
   2.77731    0.05639
   2.77975    0.05893
   2.78219    0.06168
   2.78464    0.06466
   2.78708    0.06789
   2.78952    0.07141
   2.79196    0.07525
   2.79441    0.07945
   2.79685    0.08406
   2.79929    0.08914
   2.80173    0.09474
  2.804177   0.100921
  2.806620   0.107773
  2.809062   0.115369
  2.811505   0.123797
  2.813947   0.133141
  2.816390   0.143479
  2.818832   0.154866
  2.821275   0.167320
  2.823717   0.180790
  2.826160   0.195126
  2.828603   0.210037
  2.831045   0.225059
  2.833488   0.239545
  2.835930   0.252694
  2.838372   0.263654
  2.840815   0.271671
  2.843258   0.276271
  2.845700   0.277385
  2.848142   0.275382
  2.850585   0.270971
  2.853028   0.265039
  2.855470   0.258480
  2.857913   0.252072
  2.860355   0.246421
  2.862797   0.241956
  2.865240   0.238960
  2.867683   0.237605
  2.870125   0.237994
  2.872568   0.240192
  2.875010   0.244250
  2.877453   0.250222
  2.879895   0.258179
  2.882338   0.268213
  2.884780   0.280448
  2.887223   0.295039
  2.889665   0.312179
  2.892107   0.332091
  2.894550   0.355033
  2.896993   0.381284
  2.899435   0.411132
  2.901878   0.444840
  2.904320   0.482614
  2.906763   0.524537
  2.909205   0.570468
  2.911648   0.619965
  2.914090   0.672146
  2.916533   0.725643
  2.918975   0.778582
  2.921417   0.828771
  2.923860   0.874001
  2.926303   0.912474
  2.928745   0.943206
  2.931188   0.966169
  2.933630   0.982155
  2.936073   0.992368
  2.938515   0.998007
  2.940958   1.000000
  2.943400   0.998982
  2.945843   0.995437
  2.948285   0.989842
  2.950728   0.982652
  2.953170   0.974152
  2.955613   0.964231
  2.958055   0.952247
  2.960498   0.937084
  2.962940   0.917403
  2.965383   0.892035
  2.967825   0.860346
  2.970268   0.822494
  2.972710   0.779442
  2.975153   0.732789
  2.977595   0.684418
  2.980038   0.636167
  2.982480   0.589596
  2.984923   0.545834
  2.987365   0.505607
  2.989808   0.469270
  2.992250   0.436921
  2.994693   0.408462
  2.997135   0.383683
  2.999578   0.362317
  3.002020   0.344060
  3.004463   0.328608
  3.006905   0.315658
  3.009348   0.304922
  3.011791   0.296112
  3.014233   0.288940
  3.016675   0.283109
  3.019118   0.278327
  3.021560   0.274331
  3.024003   0.270929
  3.026445   0.268033
  3.028888   0.265665
  3.031330   0.263930
  3.033773   0.262962
  3.036215   0.262845
  3.038658   0.263558
  3.041101   0.264915
  3.043543   0.266553
  3.045985   0.267947
  3.048428   0.268474
  3.050870   0.267525
  3.053313   0.264639
  3.055756   0.259622
  3.058198   0.252591
  3.060640   0.243931
  3.063083   0.234189
  3.065525   0.223955
  3.067968   0.213755
  3.070410   0.204011
  3.072853   0.195021
  3.075295   0.186976
  3.077738   0.179980
  3.080180   0.174058
  3.082623   0.169179
  3.085066   0.165252
  3.087508   0.162139
  3.089951   0.159663
  3.092393   0.157628
  3.094835   0.155845
  3.097278   0.154157
  3.099720   0.152470
  3.102163   0.150751
  3.104605   0.149023
  3.107048   0.147331
  3.109490   0.145707
  3.111933   0.144141
  3.114376   0.142565
  3.116818   0.140861
  3.119261   0.138894
  3.121703   0.136555
  3.124146   0.133800
  3.126588   0.130674
  3.129031   0.127302
  3.131473   0.123861
  3.133915   0.120539
  3.136358   0.117512
  3.138800   0.114921
  3.141243   0.112866
  3.143686   0.111414
  3.146128   0.110603
  3.148571   0.110446
  3.151013   0.110936
  3.153455   0.112047
  3.155898   0.113730
  3.158341   0.115910
  3.160783   0.118486
  3.163226   0.121337
  3.165668   0.124332
  3.168111   0.127364
  3.170553   0.130373
  3.172996   0.133372
  3.175438   0.136461
  3.177881   0.139807
  3.180323   0.143623
  3.182766   0.148128
  3.185208   0.153525
  3.187651   0.159973
  3.190093   0.167575
  3.192536   0.176355
  3.194978   0.186236
  3.197421   0.197013
  3.199863   0.208321
  3.202306   0.219623
  3.204748   0.230210
  3.207191   0.239276
  3.209633   0.246020
  3.212076   0.249811
  3.214518   0.250325
  3.216961   0.247623
  3.219403   0.242141
  3.221846   0.234582
  3.224288   0.225771
  3.226731   0.216519
  3.229173   0.207524
  3.231616   0.199325
  3.234058   0.192296
  3.236501   0.186668
  3.238943   0.182551
  3.241386   0.179960
  3.243828   0.178831
  3.246271   0.179028
  3.248713   0.180349
  3.251156   0.182537
  3.253598   0.185299
  3.256041   0.188347
  3.258483   0.191445
  3.260926   0.194459
  3.263368   0.197366
  3.265811   0.200232
  3.268253   0.203143
  3.270696   0.206126
  3.273139   0.209075
  3.275581   0.211721
  3.278023   0.213654
  3.280466   0.214398
  3.282908   0.213538
  3.285351   0.210840
  3.287793   0.206333
  3.290236   0.200313
  3.292678   0.193267
  3.295121   0.185755
  3.297563   0.178300
  3.300006   0.171316
  3.302448   0.165058
  3.304891   0.159625
  3.307333   0.154964
  3.309776   0.150891
  3.312218   0.147121
  3.314661   0.143318
  3.317103   0.139156
  3.319546   0.134386
  3.321988   0.128891
  3.324431   0.122703
  3.326874   0.115980
  3.329316   0.108952
  3.331758   0.101864
   3.33420    0.09493
   3.33664    0.08832
   3.33909    0.08212
   3.34153    0.07640
   3.34397    0.07117
   3.34641    0.06642
   3.34886    0.06212
   3.35130    0.05824
   3.35374    0.05474
   3.35618    0.05158
   3.35863    0.04873
   3.36107    0.04615
   3.36351    0.04381
   3.36595    0.04168
   3.36840    0.03975
   3.37084    0.03798
   3.37328    0.03637
   3.37572    0.03490
   3.37817    0.03354
   3.38061    0.03230
   3.38305    0.03115
   3.38549    0.03009
   3.38794    0.02912
   3.39038    0.02821
   3.39282    0.02738
   3.39526    0.02660
   3.39771    0.02589
   3.40015    0.02522
   3.40259    0.02461
   3.40503    0.02403
   3.40748    0.02350
   3.40992    0.02301
   3.41236    0.02256
   3.41480    0.02214
   3.41725    0.02176
   3.41969    0.02141
   3.42213    0.02108
   3.42457    0.02079
   3.42702    0.02053
   3.42946    0.02029
   3.43190    0.02008
   3.43434    0.01989
   3.43679    0.01974
   3.43923    0.01961
   3.44167    0.01950
   3.44411    0.01942
   3.44656    0.01937
   3.44900    0.01935
   3.45144    0.01936
   3.45388    0.01939
   3.45633    0.01946
   3.45877    0.01956
   3.46121    0.01969
   3.46365    0.01986
   3.46610    0.02007
   3.46854    0.02033
   3.47098    0.02063
   3.47342    0.02097
   3.47587    0.02138
   3.47831    0.02184
   3.48075    0.02237
   3.48319    0.02298
   3.48564    0.02366
   3.48808    0.02444
   3.49052    0.02532
   3.49296    0.02632
   3.49541    0.02744
   3.49785    0.02871
   3.50029    0.03015
   3.50273    0.03177
   3.50518    0.03360
   3.50762    0.03566
   3.51006    0.03797
   3.51250    0.04055
   3.51495    0.04341
   3.51739    0.04657
   3.51983    0.05000
   3.52227    0.05368
   3.52472    0.05752
   3.52716    0.06145
   3.52960    0.06535
   3.53204    0.06910
   3.53449    0.07259
   3.53693    0.07576
   3.53937    0.07862
   3.54181    0.08118
   3.54426    0.08351
   3.54670    0.08561
   3.54914    0.08745
   3.55158    0.08889
   3.55403    0.08976
   3.55647    0.08984
   3.55891    0.08899
   3.56135    0.08714
   3.56380    0.08436
   3.56624    0.08083
   3.56868    0.07678
   3.57112    0.07250
   3.57357    0.06822
   3.57601    0.06413
   3.57845    0.06035
   3.58089    0.05698
   3.58334    0.05405
   3.58578    0.05159
   3.58822    0.04959
   3.59066    0.04805
   3.59311    0.04694
   3.59555    0.04626
   3.59799    0.04600
   3.60043    0.04614
   3.60288    0.04666
   3.60532    0.04753
   3.60776    0.04872
   3.61020    0.05017
   3.61265    0.05179
   3.61509    0.05346
   3.61753    0.05506
   3.61997    0.05644
   3.62242    0.05746
   3.62486    0.05803
   3.62730    0.05813
   3.62974    0.05777
   3.63219    0.05702
   3.63463    0.05593
   3.63707    0.05458
   3.63951    0.05300
   3.64196    0.05118
   3.64440    0.04915
   3.64684    0.04692
   3.64928    0.04452
   3.65173    0.04202
   3.65417    0.03949
   3.65661    0.03701
   3.65905    0.03464
   3.66150    0.03241
   3.66394    0.03036
   3.66638    0.02849
   3.66882    0.02681
   3.67127    0.02532
   3.67371    0.02399
   3.67615    0.02282
   3.67859    0.02180
   3.68104    0.02091
   3.68348    0.02015
   3.68592    0.01949
   3.68836    0.01894
   3.69081    0.01849
   3.69325    0.01813
   3.69569    0.01787
   3.69813    0.01769
   3.70058    0.01759
   3.70302    0.01759
   3.70546    0.01768
   3.70790    0.01787
   3.71035    0.01815
   3.71279    0.01854
   3.71523    0.01904
   3.71767    0.01965
   3.72012    0.02037
   3.72256    0.02121
   3.72500    0.02214
   3.72744    0.02315
   3.72989    0.02419
   3.73233    0.02521
   3.73477    0.02613
   3.73721    0.02686
   3.73966    0.02733
   3.74210    0.02747
   3.74454    0.02724
   3.74698    0.02668
   3.74943    0.02582
   3.75187    0.02474
   3.75431    0.02353
   3.75675    0.02228
   3.75920    0.02103
   3.76164    0.01984
   3.76408    0.01873
   3.76652    0.01772
   3.76897    0.01682
   3.77141    0.01601
   3.77385    0.01531
   3.77629    0.01469
   3.77874    0.01416
   3.78118    0.01371
   3.78362    0.01332
   3.78606    0.01300
   3.78851    0.01273
   3.79095    0.01252
   3.79339    0.01236
   3.79583    0.01224
   3.79828    0.01218
   3.80072    0.01215
   3.80316    0.01217
   3.80560    0.01223
   3.80805    0.01233
   3.81049    0.01248
   3.81293    0.01267
   3.81537    0.01291
   3.81782    0.01321
   3.82026    0.01356
   3.82270    0.01397
   3.82514    0.01444
   3.82759    0.01499
   3.83003    0.01562
   3.83247    0.01634
   3.83491    0.01716
   3.83736    0.01810
   3.83980    0.01916
   3.84224    0.02037
   3.84468    0.02175
   3.84713    0.02330
   3.84957    0.02507
   3.85201    0.02705
   3.85445    0.02928
   3.85690    0.03176
   3.85934    0.03448
   3.86178    0.03744
   3.86422    0.04058
   3.86667    0.04382
   3.86911    0.04702
   3.87155    0.05002
   3.87399    0.05261
   3.87644    0.05460
   3.87888    0.05583
   3.88132    0.05620
   3.88376    0.05576
   3.88621    0.05460
   3.88865    0.05291
   3.89109    0.05088
   3.89353    0.04868
   3.89598    0.04644
   3.89842    0.04423
   3.90086    0.04208
   3.90330    0.04001
   3.90575    0.03800
   3.90819    0.03605
   3.91063    0.03416
   3.91307    0.03235
   3.91552    0.03060
   3.91796    0.02892
   3.92040    0.02729
   3.92284    0.02571
   3.92529    0.02418
   3.92773    0.02270
   3.93017    0.02127
   3.93261    0.01991
   3.93506    0.01863
   3.93750    0.01743
   3.93994    0.01633
   3.94238    0.01533
   3.94483    0.01442
   3.94727    0.01360
   3.94971    0.01285
   3.95215    0.01219
   3.95460    0.01159
   3.95704    0.01105
   3.95948    0.01057
   3.96192    0.01014
    3.9644     0.0098
    3.9668     0.0094
    3.9693     0.0091
    3.9717     0.0088
    3.9741     0.0086
    3.9766     0.0084
    3.9790     0.0082
    3.9815     0.0080
    3.9839     0.0079
    3.9863     0.0078
    3.9888     0.0077
    3.9912     0.0076
    3.9937     0.0076
    3.9961     0.0076
    3.9986     0.0076
    4.0010     0.0076
    4.0034     0.0077
    4.0059     0.0078
    4.0083     0.0079
    4.0108     0.0080
    4.0132     0.0082
    4.0157     0.0085
    4.0181     0.0088
    4.0205     0.0091
    4.0230     0.0095
    4.0254     0.0100
   4.02787    0.01049
   4.03031    0.01109
   4.03276    0.01176
   4.03520    0.01250
   4.03764    0.01329
   4.04008    0.01412
   4.04253    0.01495
   4.04497    0.01573
   4.04741    0.01642
   4.04985    0.01693
   4.05230    0.01722
   4.05474    0.01725
   4.05718    0.01701
   4.05962    0.01653
   4.06207    0.01585
   4.06451    0.01503
   4.06695    0.01413
   4.06940    0.01321
   4.07184    0.01231
   4.07428    0.01145
   4.07672    0.01065
    4.0792     0.0099
    4.0816     0.0093
    4.0840     0.0087
    4.0865     0.0082
    4.0889     0.0077
    4.0914     0.0073
    4.0938     0.0069
    4.0963     0.0066
    4.0987     0.0063
    4.1011     0.0060
    4.1036     0.0058
    4.1060     0.0056
    4.1085     0.0054
    4.1109     0.0052
    4.1134     0.0051
    4.1158     0.0050
    4.1182     0.0049
    4.1207     0.0048
    4.1231     0.0047
    4.1256     0.0046
    4.1280     0.0045
    4.1305     0.0045
    4.1329     0.0044
    4.1353     0.0044
    4.1378     0.0044
    4.1402     0.0044
    4.1427     0.0044
    4.1451     0.0044
    4.1476     0.0044
    4.1500     0.0044
    4.1524     0.0045
    4.1549     0.0045
    4.1573     0.0046
    4.1598     0.0046
    4.1622     0.0047
    4.1647     0.0048
    4.1671     0.0049
    4.1695     0.0051
    4.1720     0.0052
    4.1744     0.0054
    4.1769     0.0056
    4.1793     0.0059
    4.1818     0.0061
    4.1842     0.0064
    4.1866     0.0068
    4.1891     0.0072
    4.1915     0.0076
    4.1940     0.0081
    4.1964     0.0087
    4.1988     0.0093
   4.20129    0.01006
   4.20373    0.01083
   4.20617    0.01167
   4.20862    0.01255
   4.21106    0.01344
   4.21350    0.01430
   4.21595    0.01509
   4.21839    0.01573
   4.22083    0.01617
   4.22327    0.01637
   4.22572    0.01631
   4.22816    0.01601
   4.23060    0.01551
   4.23304    0.01487
   4.23549    0.01414
   4.23793    0.01340
   4.24037    0.01267
   4.24281    0.01200
   4.24526    0.01141
   4.24770    0.01090
   4.25014    0.01049
   4.25258    0.01017
    4.2550     0.0100
    4.2575     0.0098
    4.2599     0.0098
    4.2624     0.0098
    4.2648     0.0100
   4.26724    0.01017
   4.26968    0.01042
   4.27212    0.01071
   4.27457    0.01101
   4.27701    0.01129
   4.27945    0.01149
   4.28189    0.01159
   4.28434    0.01155
   4.28678    0.01137
   4.28922    0.01104
   4.29166    0.01059
   4.29411    0.01004
    4.2965     0.0094
    4.2990     0.0088
    4.3014     0.0082
    4.3039     0.0076
    4.3063     0.0071
    4.3088     0.0066
    4.3112     0.0061
    4.3136     0.0057
    4.3161     0.0053
    4.3185     0.0050
    4.3210     0.0047
    4.3234     0.0044
  4.326     0.4188E-2
  4.328     0.3970E-2
  4.331     0.3774E-2
  4.333     0.3596E-2
  4.336     0.3435E-2
  4.338     0.3288E-2
  4.341     0.3155E-2
  4.343     0.3033E-2
  4.345     0.2921E-2
  4.348     0.2818E-2
  4.350     0.2723E-2
  4.353     0.2636E-2
  4.355     0.2555E-2
  4.358     0.2480E-2
  4.360     0.2410E-2
  4.362     0.2345E-2
  4.365     0.2284E-2
  4.367     0.2227E-2
  4.370     0.2173E-2
  4.372     0.2123E-2
  4.375     0.2076E-2
  4.377     0.2031E-2
  4.380     0.1989E-2
  4.382     0.1949E-2
  4.384     0.1911E-2
  4.387     0.1876E-2
  4.389     0.1841E-2
  4.392     0.1809E-2
  4.394     0.1778E-2
  4.397     0.1749E-2
  4.399     0.1721E-2
  4.402     0.1694E-2
  4.404     0.1668E-2
  4.406     0.1643E-2
  4.409     0.1619E-2
  4.411     0.1597E-2
  4.414     0.1575E-2
  4.416     0.1554E-2
  4.419     0.1533E-2
  4.421     0.1514E-2
  4.424     0.1495E-2
  4.426     0.1477E-2
  4.428     0.1459E-2
  4.431     0.1442E-2
  4.433     0.1426E-2
  4.436     0.1410E-2
  4.438     0.1394E-2
  4.441     0.1379E-2
  4.443     0.1365E-2
  4.446     0.1350E-2
  4.448     0.1337E-2
  4.450     0.1323E-2
  4.453     0.1310E-2
  4.455     0.1298E-2
  4.458     0.1285E-2
  4.460     0.1274E-2
  4.463     0.1262E-2
  4.465     0.1250E-2
  4.468     0.1239E-2
  4.470     0.1229E-2
  4.472     0.1218E-2
  4.475     0.1208E-2
  4.477     0.1197E-2
  4.480     0.1188E-2
  4.482     0.1178E-2
  4.485     0.1168E-2
  4.487     0.1159E-2
  4.490     0.1150E-2
  4.492     0.1141E-2
  4.494     0.1133E-2
  4.497     0.1124E-2
  4.499     0.1116E-2
  4.502     0.1108E-2
  4.504     0.1099E-2
  4.507     0.1092E-2
  4.509     0.1084E-2
  4.511     0.1076E-2
  4.514     0.1069E-2
  4.516     0.1061E-2
  4.519     0.1054E-2
  4.521     0.1047E-2
  4.524     0.1040E-2
  4.526     0.1033E-2
  4.529     0.1027E-2
  4.531     0.1020E-2
  4.533     0.1013E-2
  4.536     0.1007E-2
  4.538     0.1001E-2
  4.541     0.9945E-3
  4.543     0.9883E-3
  4.546     0.9823E-3
  4.548     0.9763E-3
  4.551     0.9705E-3
  4.553     0.9647E-3
  4.555     0.9590E-3
  4.558     0.9534E-3
  4.560     0.9479E-3
  4.563     0.9424E-3
  4.565     0.9370E-3
  4.568     0.9317E-3
  4.570     0.9264E-3
  4.573     0.9213E-3
  4.575     0.9161E-3
  4.577     0.9111E-3
  4.580     0.9061E-3
  4.582     0.9012E-3
  4.585     0.8963E-3
  4.587     0.8915E-3
  4.590     0.8868E-3
  4.592     0.8821E-3
  4.595     0.8775E-3
  4.597     0.8729E-3
  4.599     0.8684E-3
  4.602     0.8639E-3
  4.604     0.8595E-3
  4.607     0.8552E-3
  4.609     0.8508E-3
  4.612     0.8466E-3
  4.614     0.8423E-3
  4.617     0.8382E-3
  4.619     0.8340E-3
  4.621     0.8299E-3
  4.624     0.8259E-3
  4.626     0.8219E-3
  4.629     0.8179E-3
  4.631     0.8140E-3
  4.634     0.8101E-3
  4.636     0.8063E-3
  4.638     0.8025E-3
  4.641     0.7987E-3
  4.643     0.7950E-3
  4.646     0.7913E-3
  4.648     0.7877E-3
  4.651     0.7840E-3
  4.653     0.7805E-3
  4.656     0.7769E-3
  4.658     0.7734E-3
  4.660     0.7699E-3
  4.663     0.7665E-3
  4.665     0.7630E-3
  4.668     0.7597E-3
  4.670     0.7563E-3
  4.673     0.7530E-3
  4.675     0.7497E-3
  4.678     0.7464E-3
  4.680     0.7432E-3
  4.682     0.7400E-3
  4.685     0.7368E-3
  4.687     0.7336E-3
  4.690     0.7305E-3
  4.692     0.7274E-3
  4.695     0.7243E-3
  4.697     0.7213E-3
  4.700     0.7182E-3
  4.702     0.7152E-3
  4.704     0.7123E-3
  4.707     0.7093E-3
  4.709     0.7064E-3
  4.712     0.7035E-3
  4.714     0.7006E-3
  4.717     0.6978E-3
  4.719     0.6949E-3
  4.722     0.6921E-3
  4.724     0.6893E-3
  4.726     0.6866E-3
  4.729     0.6838E-3
  4.731     0.6811E-3
  4.734     0.6784E-3
  4.736     0.6757E-3
  4.739     0.6730E-3
  4.741     0.6704E-3
  4.744     0.6678E-3
  4.746     0.6652E-3
  4.748     0.6626E-3
  4.751     0.6600E-3
  4.753     0.6575E-3
  4.756     0.6550E-3
  4.758     0.6524E-3
  4.761     0.6500E-3
  4.763     0.6475E-3
  4.766     0.6450E-3
  4.768     0.6426E-3
  4.770     0.6402E-3
  4.773     0.6378E-3
  4.775     0.6354E-3
  4.778     0.6330E-3
  4.780     0.6307E-3
  4.783     0.6283E-3
# 
# 05/03/2019 at 10:41 YPP @ login1.stampede2.tacc.utexas.edu [start]
# 05/03/2019 at 10:41                                        [end]
#  
# Timing   [Min/Max/Average]: 04s/04s/04s
#
# .-Input file : amp.in
# | excitons                     # [R] Excitons
# | amplitude                    # [R] Amplitude
# | BoseTemp=  0.02585     eV    # Bosonic Temperature
# | States= "1 - 10"             # Index of the BS state(s)
# | #DipWeight                   #  Weight the contribution to the exciton WFs with the dipoles
# | Degen_Step=0.1000E-4   eV    # Maximum energy separation of two degenerate states
