#                                                           
# ooooo   oooo ..     ooo        ooo ooooooooo.    .oooo.   
#  `88.   .8" .88.    `88.       .88 `88"   `Y8b  dP"  `Yb  
#   `88. .8" .8"88.    888b     d"88  88     888 88      88 
#    `88.8" .8" `88.   8 Y88. .P  88  88oooo888" 88      88 
#     `88" .88ooo888.  8  `888"   88  88    `88b 88      88 
#      88 .8"     `88. 8    Y     88  88    .88P `8b    d8" 
#     o88o88o      888o8          88 o88bood8P"   `Ybod8P"  
#                                                           
#                                                           
#               GPL Version 4.1.4 Revision 76               
#                         MPI Build                         
#                 http://www.yambo-code.org                 
#
# BSK|Identifier              :1891
#    |Dimension               :11943
#    |Bands                   :121 - 172
#    |Exchange           [res]: yes
#    |Correlation        [res]: yes
#    |Kernel`s coupling       : no
#    |Exchange           [cpl]: no
#    |Correlation        [cpl]: no
#    |W interaction is bare   : no
#    |ALDA kernel in R-space  : no
#    |RL vectors    [exchange]:31669
#    |RL vectors [correlation]:387
#    |E/h energy range    [ev]:-1.000000 - -1.000000
#    |Coupling range     [o/o]: 100.0000 -  100.0000
#  W |Interaction is diagonal : no
#    |Matrix size             :2845
#    |Bands                   :1 - 570
#    |e/h energy range    [ev]:-1.000000 - -1.000000
#    |Poles              [o/o]: 100.0000
#    |RL vectors in the sum   :31669
#    |[r,Vnl] included        : yes
#    |Field direction         :-.8660E-5 0.5000E-5  0.000000
#    |Coulomb Cutoff          :box z
#    |xc-Kernel               :none
# RIM|RL components      [col]:0
#    |Random points      [col]:0
#
# Electron-Hole pairs that contributes to Excitonic State 9 more than 5%
#
#  E    [eV]  Amplitude
#  
    1.5307     0.0018
    1.5327     0.0018
    1.5348     0.0018
    1.5369     0.0018
    1.5390     0.0019
    1.5410     0.0019
    1.5431     0.0019
    1.5452     0.0019
    1.5472     0.0019
    1.5493     0.0019
    1.5514     0.0019
    1.5535     0.0020
    1.5555     0.0020
    1.5576     0.0020
    1.5597     0.0020
    1.5617     0.0020
    1.5638     0.0021
    1.5659     0.0021
    1.5679     0.0021
    1.5700     0.0021
    1.5721     0.0021
    1.5742     0.0021
    1.5762     0.0022
    1.5783     0.0022
    1.5804     0.0022
    1.5824     0.0022
    1.5845     0.0022
    1.5866     0.0023
    1.5887     0.0023
    1.5907     0.0023
    1.5928     0.0023
    1.5949     0.0023
    1.5969     0.0024
    1.5990     0.0024
    1.6011     0.0024
    1.6031     0.0024
    1.6052     0.0025
    1.6073     0.0025
    1.6094     0.0025
    1.6114     0.0025
    1.6135     0.0026
    1.6156     0.0026
    1.6176     0.0026
    1.6197     0.0026
    1.6218     0.0027
    1.6239     0.0027
    1.6259     0.0027
    1.6280     0.0027
    1.6301     0.0028
    1.6321     0.0028
    1.6342     0.0028
    1.6363     0.0029
    1.6384     0.0029
    1.6404     0.0029
    1.6425     0.0029
    1.6446     0.0030
    1.6466     0.0030
    1.6487     0.0030
    1.6508     0.0031
    1.6528     0.0031
    1.6549     0.0031
    1.6570     0.0032
    1.6591     0.0032
    1.6611     0.0032
    1.6632     0.0033
    1.6653     0.0033
    1.6673     0.0033
    1.6694     0.0034
    1.6715     0.0034
    1.6736     0.0035
    1.6756     0.0035
    1.6777     0.0035
    1.6798     0.0036
    1.6818     0.0036
    1.6839     0.0037
    1.6860     0.0037
    1.6880     0.0038
    1.6901     0.0038
    1.6922     0.0038
    1.6943     0.0039
    1.6963     0.0039
    1.6984     0.0040
    1.7005     0.0040
    1.7025     0.0041
    1.7046     0.0041
    1.7067     0.0042
    1.7088     0.0042
    1.7108     0.0043
    1.7129     0.0043
    1.7150     0.0044
    1.7170     0.0045
    1.7191     0.0045
    1.7212     0.0046
    1.7233     0.0046
    1.7253     0.0047
    1.7274     0.0048
    1.7295     0.0048
    1.7315     0.0049
    1.7336     0.0050
    1.7357     0.0050
    1.7377     0.0051
    1.7398     0.0052
    1.7419     0.0052
    1.7440     0.0053
    1.7460     0.0054
    1.7481     0.0055
    1.7502     0.0055
    1.7522     0.0056
    1.7543     0.0057
    1.7564     0.0058
    1.7585     0.0059
    1.7605     0.0060
    1.7626     0.0060
    1.7647     0.0061
    1.7667     0.0062
    1.7688     0.0063
    1.7709     0.0064
    1.7729     0.0065
    1.7750     0.0066
    1.7771     0.0067
    1.7792     0.0068
    1.7812     0.0070
    1.7833     0.0071
    1.7854     0.0072
    1.7874     0.0073
    1.7895     0.0074
    1.7916     0.0075
    1.7937     0.0077
    1.7957     0.0078
    1.7978     0.0079
    1.7999     0.0081
    1.8019     0.0082
    1.8040     0.0084
    1.8061     0.0085
    1.8082     0.0087
    1.8102     0.0088
    1.8123     0.0090
    1.8144     0.0091
    1.8164     0.0093
    1.8185     0.0095
    1.8206     0.0097
    1.8226     0.0099
   1.82472    0.01004
   1.82679    0.01024
   1.82886    0.01044
   1.83093    0.01065
   1.83300    0.01086
   1.83507    0.01108
   1.83714    0.01131
   1.83921    0.01154
   1.84128    0.01178
   1.84335    0.01203
   1.84543    0.01229
   1.84750    0.01255
   1.84957    0.01283
   1.85164    0.01311
   1.85371    0.01340
   1.85578    0.01371
   1.85785    0.01402
   1.85992    0.01434
   1.86199    0.01468
   1.86406    0.01502
   1.86613    0.01538
   1.86820    0.01575
   1.87027    0.01614
   1.87234    0.01654
   1.87442    0.01695
   1.87649    0.01739
   1.87856    0.01783
   1.88063    0.01830
   1.88270    0.01878
   1.88477    0.01928
   1.88684    0.01980
   1.88891    0.02035
   1.89098    0.02091
   1.89305    0.02150
   1.89512    0.02212
   1.89719    0.02276
   1.89926    0.02343
   1.90134    0.02413
   1.90341    0.02486
   1.90548    0.02563
   1.90755    0.02643
   1.90962    0.02727
   1.91169    0.02815
   1.91376    0.02907
   1.91583    0.03004
   1.91790    0.03106
   1.91997    0.03212
   1.92204    0.03325
   1.92411    0.03443
   1.92618    0.03568
   1.92825    0.03700
   1.93033    0.03839
   1.93240    0.03986
   1.93447    0.04141
   1.93654    0.04305
   1.93861    0.04480
   1.94068    0.04665
   1.94275    0.04862
   1.94482    0.05071
   1.94689    0.05294
   1.94896    0.05531
   1.95103    0.05785
   1.95310    0.06056
   1.95517    0.06346
   1.95725    0.06658
   1.95932    0.06992
   1.96139    0.07352
   1.96346    0.07740
   1.96553    0.08158
   1.96760    0.08610
   1.96967    0.09100
   1.97174    0.09632
  1.973811   0.102102
  1.975882   0.108402
  1.977953   0.115281
  1.980023   0.122810
  1.982094   0.131067
  1.984165   0.140145
  1.986236   0.150149
  1.988306   0.161197
  1.990377   0.173430
  1.992448   0.187008
  1.994519   0.202111
  1.996589   0.218947
  1.998660   0.237756
  2.000731   0.258803
  2.002802   0.282384
  2.004872   0.308819
  2.006943   0.338455
  2.009014   0.371633
  2.011085   0.408671
  2.013155   0.449816
  2.015226   0.495194
  2.017297   0.544706
  2.019367   0.597940
  2.021438   0.654093
  2.023509   0.711885
  2.025580   0.769592
  2.027650   0.825155
  2.029721   0.876400
  2.031792   0.921206
  2.033863   0.957643
  2.035933   0.983959
  2.038004   0.998541
  2.040075   1.000000
  2.042146   0.987455
  2.044217   0.960938
  2.046287   0.921674
  2.048358   0.872024
  2.050429   0.815113
  2.052500   0.754259
  2.054570   0.692472
  2.056641   0.632120
  2.058712   0.574866
  2.060782   0.521701
  2.062853   0.473097
  2.064924   0.429130
  2.066995   0.389653
  2.069065   0.354368
  2.071136   0.322914
  2.073207   0.294900
  2.075278   0.269953
  2.077348   0.247718
  2.079419   0.227875
  2.081490   0.210131
  2.083560   0.194232
  2.085631   0.179956
  2.087702   0.167107
  2.089773   0.155513
  2.091844   0.145027
  2.093914   0.135520
  2.095985   0.126880
  2.098056   0.119010
  2.100127   0.111824
  2.102197   0.105249
   2.10427    0.09922
   2.10634    0.09368
   2.10841    0.08858
   2.11048    0.08388
   2.11255    0.07953
   2.11462    0.07550
   2.11669    0.07177
   2.11876    0.06830
   2.12083    0.06507
   2.12290    0.06206
   2.12498    0.05925
   2.12705    0.05663
   2.12912    0.05417
   2.13119    0.05187
   2.13326    0.04971
   2.13533    0.04768
   2.13740    0.04577
   2.13947    0.04397
   2.14154    0.04228
   2.14361    0.04067
   2.14568    0.03916
   2.14775    0.03773
   2.14982    0.03638
   2.15190    0.03510
   2.15397    0.03388
   2.15604    0.03272
   2.15811    0.03163
   2.16018    0.03058
   2.16225    0.02959
   2.16432    0.02864
   2.16639    0.02774
   2.16846    0.02688
   2.17053    0.02606
   2.17260    0.02528
   2.17467    0.02453
   2.17674    0.02381
   2.17881    0.02312
   2.18089    0.02247
   2.18296    0.02184
   2.18503    0.02123
   2.18710    0.02065
   2.18917    0.02010
   2.19124    0.01957
   2.19331    0.01905
   2.19538    0.01856
   2.19745    0.01809
   2.19952    0.01763
   2.20159    0.01719
   2.20366    0.01677
   2.20573    0.01636
   2.20781    0.01597
   2.20988    0.01559
   2.21195    0.01522
   2.21402    0.01487
   2.21609    0.01453
   2.21816    0.01420
   2.22023    0.01388
   2.22230    0.01357
   2.22437    0.01327
   2.22644    0.01299
   2.22851    0.01271
   2.23058    0.01244
   2.23265    0.01217
   2.23472    0.01192
   2.23680    0.01168
   2.23887    0.01144
   2.24094    0.01121
   2.24301    0.01098
   2.24508    0.01077
   2.24715    0.01056
   2.24922    0.01035
   2.25129    0.01015
    2.2534     0.0100
    2.2554     0.0098
    2.2575     0.0096
    2.2596     0.0094
    2.2616     0.0092
    2.2637     0.0091
    2.2658     0.0089
    2.2679     0.0087
    2.2699     0.0086
    2.2720     0.0084
    2.2741     0.0083
    2.2761     0.0082
    2.2782     0.0080
    2.2803     0.0079
    2.2824     0.0077
    2.2844     0.0076
    2.2865     0.0075
    2.2886     0.0074
    2.2906     0.0072
    2.2927     0.0071
    2.2948     0.0070
    2.2968     0.0069
    2.2989     0.0068
    2.3010     0.0067
    2.3031     0.0066
    2.3051     0.0065
    2.3072     0.0064
    2.3093     0.0063
    2.3113     0.0062
    2.3134     0.0061
    2.3155     0.0060
    2.3176     0.0059
    2.3196     0.0058
    2.3217     0.0058
    2.3238     0.0057
    2.3258     0.0056
    2.3279     0.0055
    2.3300     0.0054
    2.3320     0.0054
    2.3341     0.0053
    2.3362     0.0052
    2.3383     0.0051
    2.3403     0.0051
    2.3424     0.0050
    2.3445     0.0049
    2.3465     0.0049
    2.3486     0.0048
    2.3507     0.0047
    2.3528     0.0047
    2.3548     0.0046
    2.3569     0.0046
    2.3590     0.0045
    2.3610     0.0044
    2.3631     0.0044
    2.3652     0.0043
    2.3673     0.0043
    2.3693     0.0042
    2.3714     0.0042
    2.3735     0.0041
    2.3755     0.0041
    2.3776     0.0040
    2.3797     0.0040
    2.3817     0.0039
    2.3838     0.0039
    2.3859     0.0038
    2.3880     0.0038
    2.3900     0.0037
    2.3921     0.0037
    2.3942     0.0037
    2.3962     0.0036
    2.3983     0.0036
    2.4004     0.0035
    2.4025     0.0035
    2.4045     0.0035
    2.4066     0.0034
    2.4087     0.0034
    2.4107     0.0033
    2.4128     0.0033
    2.4149     0.0033
    2.4169     0.0032
    2.4190     0.0032
    2.4211     0.0032
    2.4232     0.0031
    2.4252     0.0031
    2.4273     0.0031
    2.4294     0.0030
    2.4314     0.0030
    2.4335     0.0030
    2.4356     0.0029
    2.4377     0.0029
    2.4397     0.0029
    2.4418     0.0029
    2.4439     0.0028
    2.4459     0.0028
    2.4480     0.0028
    2.4501     0.0027
    2.4522     0.0027
    2.4542     0.0027
    2.4563     0.0027
    2.4584     0.0026
    2.4604     0.0026
    2.4625     0.0026
    2.4646     0.0026
    2.4666     0.0025
    2.4687     0.0025
    2.4708     0.0025
  2.473     0.2462E-2
  2.475     0.2439E-2
  2.477     0.2416E-2
  2.479     0.2394E-2
  2.481     0.2372E-2
  2.483     0.2350E-2
  2.485     0.2328E-2
  2.487     0.2307E-2
  2.489     0.2286E-2
  2.491     0.2266E-2
  2.494     0.2246E-2
  2.496     0.2226E-2
  2.498     0.2206E-2
  2.500     0.2186E-2
  2.502     0.2167E-2
  2.504     0.2148E-2
  2.506     0.2130E-2
  2.508     0.2111E-2
  2.510     0.2093E-2
  2.512     0.2075E-2
  2.514     0.2057E-2
  2.516     0.2040E-2
  2.518     0.2023E-2
  2.520     0.2005E-2
  2.523     0.1989E-2
  2.525     0.1972E-2
  2.527     0.1956E-2
  2.529     0.1940E-2
  2.531     0.1924E-2
  2.533     0.1908E-2
  2.535     0.1892E-2
  2.537     0.1877E-2
  2.539     0.1862E-2
  2.541     0.1847E-2
  2.543     0.1832E-2
  2.545     0.1817E-2
  2.547     0.1803E-2
  2.549     0.1789E-2
  2.552     0.1775E-2
  2.554     0.1761E-2
  2.556     0.1747E-2
  2.558     0.1733E-2
  2.560     0.1720E-2
  2.562     0.1707E-2
  2.564     0.1694E-2
  2.566     0.1681E-2
  2.568     0.1668E-2
  2.570     0.1655E-2
  2.572     0.1643E-2
  2.574     0.1631E-2
  2.576     0.1618E-2
  2.578     0.1606E-2
  2.581     0.1595E-2
  2.583     0.1583E-2
  2.585     0.1571E-2
  2.587     0.1560E-2
  2.589     0.1548E-2
  2.591     0.1537E-2
  2.593     0.1526E-2
  2.595     0.1515E-2
  2.597     0.1504E-2
  2.599     0.1494E-2
  2.601     0.1483E-2
  2.603     0.1473E-2
  2.605     0.1462E-2
  2.607     0.1452E-2
  2.610     0.1442E-2
  2.612     0.1432E-2
  2.614     0.1422E-2
  2.616     0.1413E-2
  2.618     0.1403E-2
  2.620     0.1393E-2
  2.622     0.1384E-2
  2.624     0.1375E-2
  2.626     0.1365E-2
  2.628     0.1356E-2
  2.630     0.1347E-2
  2.632     0.1338E-2
  2.634     0.1330E-2
  2.636     0.1321E-2
  2.639     0.1312E-2
  2.641     0.1304E-2
  2.643     0.1295E-2
  2.645     0.1287E-2
  2.647     0.1279E-2
  2.649     0.1271E-2
  2.651     0.1263E-2
  2.653     0.1255E-2
  2.655     0.1247E-2
  2.657     0.1239E-2
  2.659     0.1231E-2
  2.661     0.1224E-2
  2.663     0.1216E-2
  2.665     0.1209E-2
  2.668     0.1201E-2
  2.670     0.1194E-2
  2.672     0.1187E-2
  2.674     0.1180E-2
  2.676     0.1173E-2
  2.678     0.1166E-2
  2.680     0.1159E-2
  2.682     0.1152E-2
  2.684     0.1145E-2
  2.686     0.1139E-2
  2.688     0.1132E-2
  2.690     0.1126E-2
  2.692     0.1119E-2
  2.694     0.1113E-2
  2.697     0.1106E-2
  2.699     0.1100E-2
  2.701     0.1094E-2
  2.703     0.1088E-2
  2.705     0.1082E-2
  2.707     0.1076E-2
  2.709     0.1070E-2
  2.711     0.1064E-2
  2.713     0.1059E-2
  2.715     0.1053E-2
  2.717     0.1047E-2
  2.719     0.1042E-2
  2.721     0.1036E-2
  2.723     0.1031E-2
  2.725     0.1026E-2
  2.728     0.1020E-2
  2.730     0.1015E-2
  2.732     0.1010E-2
  2.734     0.1005E-2
  2.736     0.1000E-2
  2.738     0.9950E-3
  2.740     0.9901E-3
  2.742     0.9853E-3
  2.744     0.9806E-3
  2.746     0.9759E-3
  2.748     0.9712E-3
  2.750     0.9667E-3
  2.752     0.9621E-3
  2.754     0.9577E-3
  2.757     0.9533E-3
  2.759     0.9490E-3
  2.761     0.9447E-3
  2.763     0.9405E-3
  2.765     0.9364E-3
  2.767     0.9323E-3
  2.769     0.9283E-3
  2.771     0.9243E-3
  2.773     0.9205E-3
  2.775     0.9166E-3
  2.777     0.9129E-3
  2.779     0.9092E-3
  2.781     0.9055E-3
  2.783     0.9020E-3
  2.786     0.8985E-3
  2.788     0.8950E-3
  2.790     0.8917E-3
  2.792     0.8884E-3
  2.794     0.8851E-3
  2.796     0.8819E-3
  2.798     0.8788E-3
  2.800     0.8758E-3
  2.802     0.8728E-3
  2.804     0.8700E-3
  2.806     0.8671E-3
  2.808     0.8644E-3
  2.810     0.8617E-3
  2.812     0.8591E-3
  2.815     0.8566E-3
  2.817     0.8541E-3
  2.819     0.8518E-3
  2.821     0.8495E-3
  2.823     0.8473E-3
  2.825     0.8452E-3
  2.827     0.8431E-3
  2.829     0.8412E-3
  2.831     0.8393E-3
  2.833     0.8375E-3
  2.835     0.8359E-3
  2.837     0.8343E-3
  2.839     0.8328E-3
  2.841     0.8314E-3
  2.844     0.8301E-3
  2.846     0.8290E-3
  2.848     0.8279E-3
  2.850     0.8270E-3
  2.852     0.8261E-3
  2.854     0.8254E-3
  2.856     0.8249E-3
  2.858     0.8244E-3
  2.860     0.8241E-3
  2.862     0.8239E-3
  2.864     0.8239E-3
  2.866     0.8240E-3
  2.868     0.8243E-3
  2.870     0.8248E-3
  2.873     0.8254E-3
  2.875     0.8262E-3
  2.877     0.8272E-3
  2.879     0.8284E-3
  2.881     0.8298E-3
  2.883     0.8314E-3
  2.885     0.8332E-3
  2.887     0.8353E-3
  2.889     0.8377E-3
  2.891     0.8403E-3
  2.893     0.8432E-3
  2.895     0.8464E-3
  2.897     0.8499E-3
  2.899     0.8537E-3
  2.902     0.8579E-3
  2.904     0.8625E-3
  2.906     0.8675E-3
  2.908     0.8729E-3
  2.910     0.8788E-3
  2.912     0.8852E-3
  2.914     0.8921E-3
  2.916     0.8996E-3
  2.918     0.9078E-3
  2.920     0.9165E-3
  2.922     0.9260E-3
  2.924     0.9363E-3
  2.926     0.9474E-3
  2.928     0.9594E-3
  2.930     0.9725E-3
  2.933     0.9866E-3
  2.935     0.1002E-2
  2.937     0.1018E-2
  2.939     0.1036E-2
  2.941     0.1056E-2
  2.943     0.1077E-2
  2.945     0.1101E-2
  2.947     0.1126E-2
  2.949     0.1154E-2
  2.951     0.1184E-2
  2.953     0.1217E-2
  2.955     0.1254E-2
  2.957     0.1294E-2
  2.959     0.1338E-2
  2.962     0.1388E-2
  2.964     0.1442E-2
  2.966     0.1502E-2
  2.968     0.1569E-2
  2.970     0.1644E-2
  2.972     0.1728E-2
  2.974     0.1821E-2
  2.976     0.1926E-2
  2.978     0.2043E-2
  2.980     0.2175E-2
  2.982     0.2322E-2
  2.984     0.2487E-2
  2.986     0.2669E-2
  2.988     0.2870E-2
    2.9905     0.0031
    2.9926     0.0033
    2.9947     0.0036
    2.9968     0.0038
    2.9988     0.0041
    3.0009     0.0043
    3.0030     0.0044
    3.0050     0.0046
    3.0071     0.0046
    3.0092     0.0046
    3.0113     0.0045
    3.0133     0.0044
    3.0154     0.0043
    3.0175     0.0041
    3.0195     0.0039
    3.0216     0.0037
    3.0237     0.0036
    3.0257     0.0034
    3.0278     0.0033
    3.0299     0.0033
    3.0320     0.0032
    3.0340     0.0032
    3.0361     0.0032
    3.0382     0.0032
    3.0402     0.0032
    3.0423     0.0033
    3.0444     0.0034
    3.0465     0.0036
    3.0485     0.0037
    3.0506     0.0039
    3.0527     0.0042
    3.0547     0.0044
    3.0568     0.0047
    3.0589     0.0050
    3.0610     0.0053
    3.0630     0.0056
    3.0651     0.0058
    3.0672     0.0060
    3.0692     0.0062
    3.0713     0.0062
    3.0734     0.0062
    3.0754     0.0062
    3.0775     0.0061
    3.0796     0.0060
    3.0817     0.0060
    3.0837     0.0059
    3.0858     0.0059
    3.0879     0.0059
    3.0899     0.0059
    3.0920     0.0060
    3.0941     0.0060
    3.0962     0.0061
    3.0982     0.0061
    3.1003     0.0060
    3.1024     0.0059
    3.1044     0.0057
    3.1065     0.0055
    3.1086     0.0052
    3.1106     0.0049
    3.1127     0.0045
    3.1148     0.0042
    3.1169     0.0039
    3.1189     0.0036
    3.1210     0.0033
  3.123     0.3034E-2
  3.125     0.2805E-2
  3.127     0.2600E-2
  3.129     0.2415E-2
  3.131     0.2250E-2
  3.133     0.2103E-2
  3.135     0.1970E-2
  3.138     0.1851E-2
  3.140     0.1744E-2
  3.142     0.1648E-2
  3.144     0.1561E-2
  3.146     0.1482E-2
  3.148     0.1411E-2
  3.150     0.1346E-2
  3.152     0.1286E-2
  3.154     0.1232E-2
  3.156     0.1182E-2
  3.158     0.1136E-2
  3.160     0.1094E-2
  3.162     0.1055E-2
  3.164     0.1019E-2
  3.167     0.9852E-3
  3.169     0.9540E-3
  3.171     0.9250E-3
  3.173     0.8979E-3
  3.175     0.8726E-3
  3.177     0.8488E-3
  3.179     0.8266E-3
  3.181     0.8057E-3
  3.183     0.7860E-3
  3.185     0.7675E-3
  3.187     0.7500E-3
  3.189     0.7335E-3
  3.191     0.7178E-3
  3.193     0.7030E-3
  3.196     0.6889E-3
  3.198     0.6755E-3
  3.200     0.6628E-3
  3.202     0.6507E-3
  3.204     0.6391E-3
  3.206     0.6281E-3
  3.208     0.6176E-3
  3.210     0.6075E-3
  3.212     0.5979E-3
  3.214     0.5886E-3
  3.216     0.5798E-3
  3.218     0.5713E-3
  3.220     0.5631E-3
  3.222     0.5553E-3
  3.225     0.5477E-3
  3.227     0.5405E-3
  3.229     0.5335E-3
  3.231     0.5267E-3
  3.233     0.5202E-3
  3.235     0.5139E-3
  3.237     0.5078E-3
  3.239     0.5019E-3
  3.241     0.4962E-3
  3.243     0.4907E-3
  3.245     0.4854E-3
  3.247     0.4802E-3
  3.249     0.4752E-3
  3.251     0.4703E-3
  3.254     0.4656E-3
  3.256     0.4610E-3
  3.258     0.4565E-3
  3.260     0.4522E-3
  3.262     0.4480E-3
  3.264     0.4438E-3
  3.266     0.4398E-3
  3.268     0.4359E-3
  3.270     0.4321E-3
  3.272     0.4284E-3
  3.274     0.4248E-3
  3.276     0.4213E-3
  3.278     0.4178E-3
  3.280     0.4145E-3
  3.283     0.4112E-3
  3.285     0.4080E-3
  3.287     0.4048E-3
  3.289     0.4017E-3
  3.291     0.3987E-3
  3.293     0.3958E-3
  3.295     0.3929E-3
  3.297     0.3901E-3
  3.299     0.3873E-3
  3.301     0.3846E-3
  3.303     0.3819E-3
  3.305     0.3793E-3
  3.307     0.3767E-3
  3.309     0.3742E-3
  3.312     0.3718E-3
  3.314     0.3693E-3
  3.316     0.3670E-3
  3.318     0.3646E-3
  3.320     0.3623E-3
  3.322     0.3601E-3
  3.324     0.3579E-3
  3.326     0.3557E-3
  3.328     0.3535E-3
  3.330     0.3514E-3
  3.332     0.3494E-3
  3.334     0.3473E-3
  3.336     0.3453E-3
  3.338     0.3433E-3
  3.341     0.3414E-3
  3.343     0.3395E-3
  3.345     0.3376E-3
  3.347     0.3357E-3
  3.349     0.3339E-3
  3.351     0.3321E-3
  3.353     0.3303E-3
  3.355     0.3285E-3
  3.357     0.3268E-3
  3.359     0.3251E-3
  3.361     0.3234E-3
  3.363     0.3217E-3
  3.365     0.3201E-3
  3.367     0.3184E-3
  3.369     0.3168E-3
  3.372     0.3152E-3
  3.374     0.3137E-3
  3.376     0.3121E-3
  3.378     0.3106E-3
  3.380     0.3091E-3
  3.382     0.3076E-3
  3.384     0.3062E-3
  3.386     0.3047E-3
  3.388     0.3033E-3
  3.390     0.3018E-3
  3.392     0.3004E-3
  3.394     0.2991E-3
  3.396     0.2977E-3
  3.398     0.2963E-3
  3.401     0.2950E-3
  3.403     0.2937E-3
  3.405     0.2923E-3
  3.407     0.2910E-3
  3.409     0.2898E-3
  3.411     0.2885E-3
  3.413     0.2872E-3
  3.415     0.2860E-3
  3.417     0.2847E-3
  3.419     0.2835E-3
  3.421     0.2823E-3
  3.423     0.2811E-3
  3.425     0.2799E-3
  3.427     0.2787E-3
  3.430     0.2776E-3
  3.432     0.2764E-3
  3.434     0.2753E-3
  3.436     0.2742E-3
  3.438     0.2730E-3
  3.440     0.2719E-3
  3.442     0.2708E-3
  3.444     0.2697E-3
  3.446     0.2686E-3
  3.448     0.2676E-3
  3.450     0.2665E-3
  3.452     0.2655E-3
  3.454     0.2644E-3
  3.456     0.2634E-3
  3.459     0.2624E-3
  3.461     0.2613E-3
  3.463     0.2603E-3
  3.465     0.2593E-3
  3.467     0.2583E-3
  3.469     0.2573E-3
  3.471     0.2564E-3
  3.473     0.2554E-3
  3.475     0.2544E-3
  3.477     0.2535E-3
  3.479     0.2525E-3
  3.481     0.2516E-3
  3.483     0.2507E-3
  3.485     0.2497E-3
  3.488     0.2488E-3
  3.490     0.2479E-3
  3.492     0.2470E-3
  3.494     0.2461E-3
  3.496     0.2452E-3
  3.498     0.2443E-3
  3.500     0.2435E-3
  3.502     0.2426E-3
  3.504     0.2417E-3
  3.506     0.2409E-3
  3.508     0.2400E-3
  3.510     0.2392E-3
  3.512     0.2383E-3
  3.514     0.2375E-3
  3.517     0.2367E-3
  3.519     0.2359E-3
  3.521     0.2350E-3
  3.523     0.2342E-3
  3.525     0.2334E-3
  3.527     0.2326E-3
  3.529     0.2318E-3
  3.531     0.2310E-3
  3.533     0.2302E-3
  3.535     0.2295E-3
  3.537     0.2287E-3
  3.539     0.2279E-3
  3.541     0.2272E-3
  3.543     0.2264E-3
  3.546     0.2257E-3
  3.548     0.2249E-3
  3.550     0.2242E-3
  3.552     0.2234E-3
  3.554     0.2227E-3
  3.556     0.2220E-3
  3.558     0.2212E-3
  3.560     0.2205E-3
  3.562     0.2198E-3
  3.564     0.2191E-3
  3.566     0.2184E-3
  3.568     0.2177E-3
  3.570     0.2170E-3
  3.572     0.2163E-3
  3.574     0.2156E-3
  3.577     0.2149E-3
  3.579     0.2142E-3
  3.581     0.2135E-3
  3.583     0.2129E-3
  3.585     0.2122E-3
  3.587     0.2115E-3
  3.589     0.2109E-3
  3.591     0.2102E-3
  3.593     0.2095E-3
  3.595     0.2089E-3
  3.597     0.2082E-3
  3.599     0.2076E-3
# 
# 05/03/2019 at 10:41 YPP @ login1.stampede2.tacc.utexas.edu [start]
# 05/03/2019 at 10:41                                        [end]
#  
# Timing   [Min/Max/Average]: 04s/04s/04s
#
# .-Input file : amp.in
# | excitons                     # [R] Excitons
# | amplitude                    # [R] Amplitude
# | BoseTemp=  0.02585     eV    # Bosonic Temperature
# | States= "1 - 10"             # Index of the BS state(s)
# | #DipWeight                   #  Weight the contribution to the exciton WFs with the dipoles
# | Degen_Step=0.1000E-4   eV    # Maximum energy separation of two degenerate states
