#                                                           
# ooooo   oooo ..     ooo        ooo ooooooooo.    .oooo.   
#  `88.   .8" .88.    `88.       .88 `88"   `Y8b  dP"  `Yb  
#   `88. .8" .8"88.    888b     d"88  88     888 88      88 
#    `88.8" .8" `88.   8 Y88. .P  88  88oooo888" 88      88 
#     `88" .88ooo888.  8  `888"   88  88    `88b 88      88 
#      88 .8"     `88. 8    Y     88  88    .88P `8b    d8" 
#     o88o88o      888o8          88 o88bood8P"   `Ybod8P"  
#                                                           
#                                                           
#               GPL Version 4.1.4 Revision 76               
#                         MPI Build                         
#                 http://www.yambo-code.org                 
#
# BSK|Identifier              :1891
#    |Dimension               :11943
#    |Bands                   :121 - 172
#    |Exchange           [res]: yes
#    |Correlation        [res]: yes
#    |Kernel`s coupling       : no
#    |Exchange           [cpl]: no
#    |Correlation        [cpl]: no
#    |W interaction is bare   : no
#    |ALDA kernel in R-space  : no
#    |RL vectors    [exchange]:31669
#    |RL vectors [correlation]:387
#    |E/h energy range    [ev]:-1.000000 - -1.000000
#    |Coupling range     [o/o]: 100.0000 -  100.0000
#  W |Interaction is diagonal : no
#    |Matrix size             :2845
#    |Bands                   :1 - 570
#    |e/h energy range    [ev]:-1.000000 - -1.000000
#    |Poles              [o/o]: 100.0000
#    |RL vectors in the sum   :31669
#    |[r,Vnl] included        : yes
#    |Field direction         :-.8660E-5 0.5000E-5  0.000000
#    |Coulomb Cutoff          :box z
#    |xc-Kernel               :none
# RIM|RL components      [col]:0
#    |Random points      [col]:0
#
# Electron-Hole pairs that contributes to Excitonic State 3 more than 5%
#
#  E    [eV]  Amplitude
#  
  2.697     0.1896E-2
  2.699     0.1912E-2
  2.701     0.1929E-2
  2.703     0.1946E-2
  2.706     0.1962E-2
  2.708     0.1980E-2
  2.710     0.1997E-2
  2.712     0.2014E-2
  2.714     0.2032E-2
  2.717     0.2050E-2
  2.719     0.2068E-2
  2.721     0.2087E-2
  2.723     0.2106E-2
  2.725     0.2125E-2
  2.728     0.2144E-2
  2.730     0.2163E-2
  2.732     0.2183E-2
  2.734     0.2203E-2
  2.736     0.2224E-2
  2.739     0.2244E-2
  2.741     0.2265E-2
  2.743     0.2286E-2
  2.745     0.2308E-2
  2.747     0.2330E-2
  2.749     0.2352E-2
  2.752     0.2374E-2
  2.754     0.2397E-2
  2.756     0.2420E-2
  2.758     0.2443E-2
  2.760     0.2467E-2
  2.763     0.2491E-2
  2.765     0.2516E-2
  2.767     0.2541E-2
  2.769     0.2566E-2
  2.771     0.2591E-2
  2.774     0.2617E-2
  2.776     0.2644E-2
  2.778     0.2670E-2
  2.780     0.2697E-2
  2.782     0.2725E-2
  2.785     0.2753E-2
  2.787     0.2781E-2
    2.7889     0.0028
    2.7911     0.0028
    2.7933     0.0029
    2.7955     0.0029
    2.7977     0.0029
    2.7999     0.0030
    2.8021     0.0030
    2.8043     0.0030
    2.8065     0.0031
    2.8087     0.0031
    2.8109     0.0031
    2.8130     0.0032
    2.8152     0.0032
    2.8174     0.0032
    2.8196     0.0033
    2.8218     0.0033
    2.8240     0.0033
    2.8262     0.0034
    2.8284     0.0034
    2.8306     0.0035
    2.8328     0.0035
    2.8350     0.0035
    2.8372     0.0036
    2.8393     0.0036
    2.8415     0.0037
    2.8437     0.0037
    2.8459     0.0038
    2.8481     0.0038
    2.8503     0.0038
    2.8525     0.0039
    2.8547     0.0039
    2.8569     0.0040
    2.8591     0.0040
    2.8613     0.0041
    2.8635     0.0041
    2.8656     0.0042
    2.8678     0.0042
    2.8700     0.0043
    2.8722     0.0044
    2.8744     0.0044
    2.8766     0.0045
    2.8788     0.0045
    2.8810     0.0046
    2.8832     0.0046
    2.8854     0.0047
    2.8876     0.0048
    2.8898     0.0048
    2.8919     0.0049
    2.8941     0.0050
    2.8963     0.0050
    2.8985     0.0051
    2.9007     0.0052
    2.9029     0.0053
    2.9051     0.0053
    2.9073     0.0054
    2.9095     0.0055
    2.9117     0.0056
    2.9139     0.0057
    2.9161     0.0057
    2.9182     0.0058
    2.9204     0.0059
    2.9226     0.0060
    2.9248     0.0061
    2.9270     0.0062
    2.9292     0.0063
    2.9314     0.0064
    2.9336     0.0065
    2.9358     0.0066
    2.9380     0.0067
    2.9402     0.0068
    2.9424     0.0069
    2.9446     0.0070
    2.9467     0.0071
    2.9489     0.0073
    2.9511     0.0074
    2.9533     0.0075
    2.9555     0.0076
    2.9577     0.0078
    2.9599     0.0079
    2.9621     0.0080
    2.9643     0.0082
    2.9665     0.0083
    2.9687     0.0085
    2.9709     0.0086
    2.9730     0.0088
    2.9752     0.0089
    2.9774     0.0091
    2.9796     0.0093
    2.9818     0.0095
    2.9840     0.0096
    2.9862     0.0098
   2.98839    0.01002
   2.99058    0.01022
   2.99277    0.01043
   2.99496    0.01064
   2.99715    0.01085
   2.99935    0.01108
   3.00154    0.01131
   3.00373    0.01154
   3.00592    0.01179
   3.00811    0.01204
   3.01030    0.01230
   3.01250    0.01257
   3.01469    0.01285
   3.01688    0.01314
   3.01907    0.01344
   3.02126    0.01375
   3.02345    0.01407
   3.02565    0.01440
   3.02784    0.01474
   3.03003    0.01509
   3.03222    0.01546
   3.03441    0.01584
   3.03661    0.01623
   3.03880    0.01664
   3.04099    0.01707
   3.04318    0.01751
   3.04537    0.01797
   3.04756    0.01844
   3.04976    0.01894
   3.05195    0.01946
   3.05414    0.01999
   3.05633    0.02055
   3.05852    0.02114
   3.06072    0.02174
   3.06291    0.02238
   3.06510    0.02304
   3.06729    0.02374
   3.06948    0.02446
   3.07167    0.02522
   3.07387    0.02601
   3.07606    0.02684
   3.07825    0.02771
   3.08044    0.02863
   3.08263    0.02959
   3.08483    0.03060
   3.08702    0.03166
   3.08921    0.03277
   3.09140    0.03395
   3.09359    0.03519
   3.09578    0.03649
   3.09798    0.03788
   3.10017    0.03934
   3.10236    0.04088
   3.10455    0.04252
   3.10674    0.04425
   3.10893    0.04610
   3.11113    0.04806
   3.11332    0.05014
   3.11551    0.05237
   3.11770    0.05474
   3.11989    0.05727
   3.12209    0.05998
   3.12428    0.06288
   3.12647    0.06600
   3.12866    0.06935
   3.13085    0.07295
   3.13304    0.07684
   3.13524    0.08103
   3.13743    0.08557
   3.13962    0.09050
   3.14181    0.09584
  3.144003   0.101663
  3.146195   0.108009
  3.148387   0.114945
  3.150579   0.122543
  3.152771   0.130884
  3.154963   0.140062
  3.157154   0.150184
  3.159346   0.161374
  3.161538   0.173774
  3.163730   0.187545
  3.165921   0.202871
  3.168113   0.219960
  3.170305   0.239043
  3.172497   0.260382
  3.174689   0.284256
  3.176880   0.310958
  3.179072   0.340785
  3.181264   0.374014
  3.183456   0.410876
  3.185647   0.451515
  3.187840   0.495966
  3.190031   0.544089
  3.192223   0.595562
  3.194415   0.649846
  3.196607   0.706154
  3.198798   0.763373
  3.200990   0.819958
  3.203182   0.873762
  3.205374   0.921988
  3.207566   0.961312
  3.209758   0.988290
  3.211949   1.000000
  3.214141   0.994739
  3.216333   0.972497
  3.218525   0.935026
  3.220716   0.885455
  3.222908   0.827624
  3.225100   0.765392
  3.227292   0.702091
  3.229484   0.640288
  3.231675   0.581721
  3.233867   0.527410
  3.236059   0.477817
  3.238251   0.433014
  3.240443   0.392833
  3.242634   0.356950
  3.244826   0.324990
  3.247018   0.296552
  3.249210   0.271248
  3.251402   0.248711
  3.253593   0.228614
  3.255785   0.210656
  3.257977   0.194577
  3.260169   0.180149
  3.262361   0.167171
  3.264552   0.155469
  3.266744   0.144893
  3.268936   0.135310
  3.271128   0.126607
  3.273319   0.118684
  3.275511   0.111455
  3.277703   0.104844
   3.27989    0.09879
   3.28209    0.09322
   3.28428    0.08810
   3.28647    0.08338
   3.28866    0.07902
   3.29085    0.07499
   3.29305    0.07125
   3.29524    0.06778
   3.29743    0.06455
   3.29962    0.06154
   3.30181    0.05873
   3.30400    0.05611
   3.30620    0.05366
   3.30839    0.05136
   3.31058    0.04920
   3.31277    0.04718
   3.31496    0.04527
   3.31716    0.04348
   3.31935    0.04179
   3.32154    0.04020
   3.32373    0.03869
   3.32592    0.03727
   3.32811    0.03592
   3.33031    0.03464
   3.33250    0.03344
   3.33469    0.03229
   3.33688    0.03120
   3.33907    0.03016
   3.34127    0.02917
   3.34346    0.02823
   3.34565    0.02734
   3.34784    0.02649
   3.35003    0.02567
   3.35222    0.02489
   3.35442    0.02415
   3.35661    0.02344
   3.35880    0.02276
   3.36099    0.02211
   3.36318    0.02149
   3.36537    0.02089
   3.36757    0.02032
   3.36976    0.01977
   3.37195    0.01924
   3.37414    0.01873
   3.37633    0.01824
   3.37853    0.01778
   3.38072    0.01732
   3.38291    0.01689
   3.38510    0.01647
   3.38729    0.01607
   3.38948    0.01568
   3.39168    0.01531
   3.39387    0.01494
   3.39606    0.01460
   3.39825    0.01426
   3.40044    0.01393
   3.40264    0.01362
   3.40483    0.01332
   3.40702    0.01302
   3.40921    0.01274
   3.41140    0.01246
   3.41359    0.01220
   3.41579    0.01194
   3.41798    0.01169
   3.42017    0.01145
   3.42236    0.01121
   3.42455    0.01099
   3.42675    0.01076
   3.42894    0.01055
   3.43113    0.01034
   3.43332    0.01014
    3.4355     0.0099
    3.4377     0.0098
    3.4399     0.0096
    3.4421     0.0094
    3.4443     0.0092
    3.4465     0.0090
    3.4487     0.0089
    3.4509     0.0087
    3.4530     0.0086
    3.4552     0.0084
    3.4574     0.0083
    3.4596     0.0081
    3.4618     0.0080
    3.4640     0.0078
    3.4662     0.0077
    3.4684     0.0076
    3.4706     0.0074
    3.4728     0.0073
    3.4750     0.0072
    3.4772     0.0071
    3.4793     0.0070
    3.4815     0.0069
    3.4837     0.0068
    3.4859     0.0066
    3.4881     0.0065
    3.4903     0.0064
    3.4925     0.0063
    3.4947     0.0062
    3.4969     0.0061
    3.4991     0.0061
    3.5013     0.0060
    3.5035     0.0059
    3.5056     0.0058
    3.5078     0.0057
    3.5100     0.0056
    3.5122     0.0055
    3.5144     0.0055
    3.5166     0.0054
    3.5188     0.0053
    3.5210     0.0052
    3.5232     0.0052
    3.5254     0.0051
    3.5276     0.0050
    3.5298     0.0049
    3.5320     0.0049
    3.5341     0.0048
    3.5363     0.0047
    3.5385     0.0047
    3.5407     0.0046
    3.5429     0.0046
    3.5451     0.0045
    3.5473     0.0044
    3.5495     0.0044
    3.5517     0.0043
    3.5539     0.0043
    3.5561     0.0042
    3.5583     0.0042
    3.5604     0.0041
    3.5626     0.0041
    3.5648     0.0040
    3.5670     0.0040
    3.5692     0.0039
    3.5714     0.0039
    3.5736     0.0038
    3.5758     0.0038
    3.5780     0.0037
    3.5802     0.0037
    3.5824     0.0036
    3.5846     0.0036
  3.587     0.3563E-2
  3.589     0.3522E-2
  3.591     0.3481E-2
  3.593     0.3442E-2
  3.596     0.3403E-2
  3.598     0.3364E-2
  3.600     0.3327E-2
  3.602     0.3289E-2
  3.604     0.3253E-2
  3.606     0.3217E-2
  3.609     0.3182E-2
  3.611     0.3147E-2
  3.613     0.3113E-2
  3.615     0.3079E-2
  3.617     0.3046E-2
  3.620     0.3014E-2
  3.622     0.2982E-2
  3.624     0.2950E-2
  3.626     0.2919E-2
  3.628     0.2889E-2
  3.631     0.2859E-2
  3.633     0.2829E-2
  3.635     0.2800E-2
  3.637     0.2771E-2
  3.639     0.2743E-2
  3.642     0.2715E-2
  3.644     0.2688E-2
  3.646     0.2661E-2
  3.648     0.2634E-2
  3.650     0.2608E-2
  3.653     0.2582E-2
  3.655     0.2557E-2
  3.657     0.2532E-2
  3.659     0.2507E-2
  3.661     0.2483E-2
  3.663     0.2459E-2
  3.666     0.2435E-2
  3.668     0.2412E-2
  3.670     0.2389E-2
  3.672     0.2366E-2
  3.674     0.2344E-2
  3.677     0.2322E-2
  3.679     0.2301E-2
  3.681     0.2279E-2
  3.683     0.2258E-2
  3.685     0.2237E-2
  3.688     0.2217E-2
  3.690     0.2197E-2
  3.692     0.2177E-2
  3.694     0.2157E-2
  3.696     0.2138E-2
  3.699     0.2118E-2
  3.701     0.2100E-2
  3.703     0.2081E-2
  3.705     0.2063E-2
  3.707     0.2044E-2
  3.709     0.2027E-2
  3.712     0.2009E-2
  3.714     0.1991E-2
  3.716     0.1974E-2
  3.718     0.1957E-2
  3.720     0.1940E-2
  3.723     0.1924E-2
  3.725     0.1908E-2
  3.727     0.1891E-2
  3.729     0.1875E-2
  3.731     0.1860E-2
  3.734     0.1844E-2
  3.736     0.1829E-2
  3.738     0.1814E-2
  3.740     0.1799E-2
  3.742     0.1784E-2
  3.745     0.1769E-2
  3.747     0.1755E-2
  3.749     0.1741E-2
  3.751     0.1727E-2
  3.753     0.1713E-2
  3.756     0.1699E-2
  3.758     0.1685E-2
  3.760     0.1672E-2
  3.762     0.1659E-2
  3.764     0.1646E-2
  3.766     0.1633E-2
  3.769     0.1620E-2
  3.771     0.1607E-2
  3.773     0.1595E-2
  3.775     0.1583E-2
  3.777     0.1570E-2
  3.780     0.1558E-2
  3.782     0.1546E-2
  3.784     0.1535E-2
  3.786     0.1523E-2
  3.788     0.1512E-2
  3.791     0.1500E-2
  3.793     0.1489E-2
  3.795     0.1478E-2
  3.797     0.1467E-2
  3.799     0.1456E-2
  3.802     0.1445E-2
  3.804     0.1435E-2
  3.806     0.1424E-2
  3.808     0.1414E-2
  3.810     0.1403E-2
  3.813     0.1393E-2
  3.815     0.1383E-2
  3.817     0.1373E-2
  3.819     0.1363E-2
  3.821     0.1354E-2
  3.823     0.1344E-2
  3.826     0.1334E-2
  3.828     0.1325E-2
  3.830     0.1316E-2
  3.832     0.1306E-2
  3.834     0.1297E-2
  3.837     0.1288E-2
  3.839     0.1279E-2
  3.841     0.1271E-2
  3.843     0.1262E-2
  3.845     0.1253E-2
  3.848     0.1245E-2
  3.850     0.1236E-2
  3.852     0.1228E-2
  3.854     0.1219E-2
  3.856     0.1211E-2
  3.859     0.1203E-2
  3.861     0.1195E-2
  3.863     0.1187E-2
  3.865     0.1179E-2
  3.867     0.1171E-2
  3.869     0.1163E-2
  3.872     0.1156E-2
  3.874     0.1148E-2
  3.876     0.1141E-2
  3.878     0.1133E-2
  3.880     0.1126E-2
  3.883     0.1119E-2
  3.885     0.1111E-2
  3.887     0.1104E-2
  3.889     0.1097E-2
  3.891     0.1090E-2
  3.894     0.1083E-2
  3.896     0.1076E-2
  3.898     0.1070E-2
  3.900     0.1063E-2
  3.902     0.1056E-2
  3.905     0.1050E-2
  3.907     0.1043E-2
  3.909     0.1036E-2
  3.911     0.1030E-2
  3.913     0.1024E-2
  3.916     0.1017E-2
  3.918     0.1011E-2
  3.920     0.1005E-2
  3.922     0.9988E-3
  3.924     0.9927E-3
  3.926     0.9867E-3
  3.929     0.9808E-3
  3.931     0.9749E-3
  3.933     0.9690E-3
  3.935     0.9632E-3
  3.937     0.9575E-3
  3.940     0.9518E-3
  3.942     0.9461E-3
  3.944     0.9405E-3
  3.946     0.9350E-3
  3.948     0.9295E-3
  3.951     0.9241E-3
  3.953     0.9187E-3
  3.955     0.9134E-3
  3.957     0.9081E-3
  3.959     0.9028E-3
  3.962     0.8976E-3
  3.964     0.8925E-3
  3.966     0.8874E-3
  3.968     0.8823E-3
  3.970     0.8773E-3
  3.973     0.8723E-3
  3.975     0.8674E-3
  3.977     0.8625E-3
  3.979     0.8577E-3
  3.981     0.8529E-3
  3.983     0.8481E-3
  3.986     0.8434E-3
  3.988     0.8387E-3
  3.990     0.8341E-3
  3.992     0.8295E-3
  3.994     0.8250E-3
  3.997     0.8204E-3
  3.999     0.8160E-3
  4.001     0.8115E-3
  4.003     0.8071E-3
  4.005     0.8028E-3
  4.008     0.7985E-3
  4.010     0.7942E-3
  4.012     0.7899E-3
  4.014     0.7857E-3
  4.016     0.7815E-3
  4.019     0.7774E-3
  4.021     0.7733E-3
  4.023     0.7692E-3
  4.025     0.7652E-3
  4.027     0.7612E-3
  4.029     0.7572E-3
  4.032     0.7533E-3
  4.034     0.7494E-3
  4.036     0.7455E-3
  4.038     0.7417E-3
  4.040     0.7379E-3
  4.043     0.7341E-3
  4.045     0.7304E-3
  4.047     0.7267E-3
  4.049     0.7230E-3
  4.051     0.7193E-3
  4.054     0.7157E-3
  4.056     0.7121E-3
  4.058     0.7086E-3
  4.060     0.7051E-3
  4.062     0.7016E-3
  4.065     0.6981E-3
  4.067     0.6947E-3
  4.069     0.6913E-3
  4.071     0.6879E-3
  4.073     0.6846E-3
  4.076     0.6812E-3
  4.078     0.6779E-3
  4.080     0.6747E-3
  4.082     0.6715E-3
  4.084     0.6682E-3
  4.086     0.6651E-3
  4.089     0.6619E-3
  4.091     0.6588E-3
  4.093     0.6557E-3
  4.095     0.6526E-3
  4.097     0.6496E-3
  4.100     0.6466E-3
  4.102     0.6436E-3
  4.104     0.6406E-3
  4.106     0.6377E-3
  4.108     0.6348E-3
  4.111     0.6319E-3
  4.113     0.6290E-3
  4.115     0.6262E-3
  4.117     0.6234E-3
  4.119     0.6206E-3
  4.122     0.6178E-3
  4.124     0.6151E-3
  4.126     0.6124E-3
  4.128     0.6097E-3
  4.130     0.6070E-3
  4.133     0.6044E-3
  4.135     0.6018E-3
  4.137     0.5992E-3
  4.139     0.5967E-3
  4.141     0.5941E-3
  4.143     0.5916E-3
  4.146     0.5892E-3
  4.148     0.5867E-3
  4.150     0.5843E-3
  4.152     0.5819E-3
  4.154     0.5795E-3
  4.157     0.5771E-3
  4.159     0.5748E-3
  4.161     0.5725E-3
  4.163     0.5702E-3
  4.165     0.5680E-3
  4.168     0.5658E-3
  4.170     0.5636E-3
  4.172     0.5614E-3
  4.174     0.5592E-3
  4.176     0.5571E-3
  4.179     0.5550E-3
  4.181     0.5530E-3
  4.183     0.5509E-3
  4.185     0.5489E-3
  4.187     0.5470E-3
  4.189     0.5450E-3
  4.192     0.5431E-3
  4.194     0.5412E-3
  4.196     0.5393E-3
  4.198     0.5375E-3
  4.200     0.5357E-3
  4.203     0.5340E-3
  4.205     0.5322E-3
  4.207     0.5305E-3
  4.209     0.5289E-3
  4.211     0.5273E-3
  4.214     0.5257E-3
  4.216     0.5241E-3
  4.218     0.5226E-3
  4.220     0.5211E-3
  4.222     0.5197E-3
  4.225     0.5183E-3
  4.227     0.5169E-3
  4.229     0.5156E-3
  4.231     0.5144E-3
  4.233     0.5132E-3
  4.236     0.5120E-3
  4.238     0.5109E-3
  4.240     0.5098E-3
  4.242     0.5088E-3
  4.244     0.5079E-3
  4.246     0.5070E-3
  4.249     0.5062E-3
  4.251     0.5054E-3
  4.253     0.5047E-3
  4.255     0.5041E-3
  4.257     0.5036E-3
  4.260     0.5031E-3
  4.262     0.5028E-3
  4.264     0.5025E-3
  4.266     0.5023E-3
  4.268     0.5022E-3
  4.271     0.5023E-3
  4.273     0.5024E-3
  4.275     0.5027E-3
  4.277     0.5031E-3
  4.279     0.5036E-3
  4.282     0.5043E-3
  4.284     0.5051E-3
  4.286     0.5061E-3
  4.288     0.5073E-3
  4.290     0.5087E-3
  4.293     0.5104E-3
  4.295     0.5122E-3
  4.297     0.5143E-3
  4.299     0.5167E-3
  4.301     0.5194E-3
  4.303     0.5223E-3
  4.306     0.5257E-3
  4.308     0.5294E-3
  4.310     0.5336E-3
  4.312     0.5382E-3
  4.314     0.5434E-3
  4.317     0.5491E-3
  4.319     0.5554E-3
  4.321     0.5625E-3
  4.323     0.5703E-3
  4.325     0.5790E-3
  4.328     0.5887E-3
  4.330     0.5994E-3
  4.332     0.6113E-3
  4.334     0.6247E-3
  4.336     0.6395E-3
  4.339     0.6562E-3
  4.341     0.6748E-3
  4.343     0.6956E-3
  4.345     0.7190E-3
  4.347     0.7454E-3
  4.349     0.7750E-3
  4.352     0.8085E-3
  4.354     0.8462E-3
  4.356     0.8889E-3
  4.358     0.9370E-3
  4.360     0.9914E-3
  4.363     0.1053E-2
  4.365     0.1121E-2
  4.367     0.1198E-2
  4.369     0.1283E-2
  4.371     0.1375E-2
  4.374     0.1474E-2
  4.376     0.1577E-2
  4.378     0.1681E-2
  4.380     0.1779E-2
  4.382     0.1866E-2
  4.385     0.1933E-2
  4.387     0.1975E-2
  4.389     0.1985E-2
  4.391     0.1964E-2
  4.393     0.1913E-2
  4.396     0.1837E-2
  4.398     0.1744E-2
  4.400     0.1641E-2
  4.402     0.1535E-2
  4.404     0.1430E-2
  4.406     0.1330E-2
  4.409     0.1236E-2
  4.411     0.1151E-2
  4.413     0.1074E-2
  4.415     0.1004E-2
  4.417     0.9419E-3
  4.420     0.8864E-3
  4.422     0.8369E-3
  4.424     0.7928E-3
  4.426     0.7535E-3
  4.428     0.7183E-3
  4.431     0.6868E-3
  4.433     0.6585E-3
  4.435     0.6330E-3
  4.437     0.6100E-3
  4.439     0.5892E-3
  4.442     0.5703E-3
  4.444     0.5531E-3
  4.446     0.5374E-3
  4.448     0.5230E-3
  4.450     0.5098E-3
  4.453     0.4976E-3
  4.455     0.4864E-3
  4.457     0.4760E-3
  4.459     0.4664E-3
  4.461     0.4575E-3
  4.463     0.4491E-3
  4.466     0.4413E-3
  4.468     0.4341E-3
  4.470     0.4272E-3
  4.472     0.4208E-3
  4.474     0.4148E-3
  4.477     0.4091E-3
  4.479     0.4037E-3
  4.481     0.3986E-3
  4.483     0.3937E-3
  4.485     0.3891E-3
  4.488     0.3847E-3
  4.490     0.3806E-3
  4.492     0.3766E-3
  4.494     0.3728E-3
  4.496     0.3692E-3
  4.499     0.3657E-3
  4.501     0.3623E-3
  4.503     0.3591E-3
  4.505     0.3560E-3
  4.507     0.3530E-3
  4.509     0.3501E-3
  4.512     0.3474E-3
  4.514     0.3447E-3
  4.516     0.3421E-3
  4.518     0.3396E-3
  4.520     0.3371E-3
  4.523     0.3348E-3
  4.525     0.3325E-3
  4.527     0.3303E-3
  4.529     0.3281E-3
  4.531     0.3260E-3
  4.534     0.3239E-3
  4.536     0.3219E-3
  4.538     0.3200E-3
  4.540     0.3181E-3
  4.542     0.3162E-3
  4.545     0.3144E-3
  4.547     0.3126E-3
  4.549     0.3109E-3
  4.551     0.3092E-3
  4.553     0.3075E-3
  4.556     0.3059E-3
  4.558     0.3043E-3
  4.560     0.3027E-3
  4.562     0.3012E-3
  4.564     0.2996E-3
  4.566     0.2982E-3
  4.569     0.2967E-3
  4.571     0.2953E-3
  4.573     0.2938E-3
  4.575     0.2924E-3
  4.577     0.2911E-3
  4.580     0.2897E-3
  4.582     0.2884E-3
  4.584     0.2871E-3
  4.586     0.2858E-3
  4.588     0.2845E-3
  4.591     0.2833E-3
  4.593     0.2820E-3
  4.595     0.2808E-3
  4.597     0.2796E-3
  4.599     0.2784E-3
  4.602     0.2772E-3
  4.604     0.2761E-3
  4.606     0.2749E-3
  4.608     0.2738E-3
  4.610     0.2727E-3
  4.613     0.2716E-3
  4.615     0.2705E-3
  4.617     0.2694E-3
  4.619     0.2683E-3
  4.621     0.2673E-3
  4.623     0.2662E-3
  4.626     0.2652E-3
  4.628     0.2642E-3
  4.630     0.2631E-3
  4.632     0.2621E-3
  4.634     0.2611E-3
  4.637     0.2602E-3
  4.639     0.2592E-3
  4.641     0.2582E-3
  4.643     0.2573E-3
  4.645     0.2563E-3
  4.648     0.2554E-3
  4.650     0.2544E-3
  4.652     0.2535E-3
  4.654     0.2526E-3
  4.656     0.2517E-3
  4.659     0.2508E-3
  4.661     0.2499E-3
  4.663     0.2490E-3
  4.665     0.2481E-3
  4.667     0.2472E-3
  4.669     0.2464E-3
  4.672     0.2455E-3
  4.674     0.2447E-3
  4.676     0.2438E-3
  4.678     0.2430E-3
  4.680     0.2421E-3
  4.683     0.2413E-3
  4.685     0.2405E-3
  4.687     0.2397E-3
  4.689     0.2389E-3
  4.691     0.2380E-3
  4.694     0.2372E-3
  4.696     0.2365E-3
  4.698     0.2357E-3
  4.700     0.2349E-3
  4.702     0.2341E-3
  4.705     0.2333E-3
  4.707     0.2326E-3
  4.709     0.2318E-3
  4.711     0.2310E-3
  4.713     0.2303E-3
  4.716     0.2296E-3
  4.718     0.2288E-3
  4.720     0.2281E-3
  4.722     0.2273E-3
  4.724     0.2266E-3
  4.726     0.2259E-3
  4.729     0.2252E-3
  4.731     0.2244E-3
  4.733     0.2237E-3
  4.735     0.2230E-3
  4.737     0.2223E-3
  4.740     0.2216E-3
  4.742     0.2209E-3
  4.744     0.2202E-3
  4.746     0.2196E-3
  4.748     0.2189E-3
  4.751     0.2182E-3
  4.753     0.2175E-3
  4.755     0.2169E-3
  4.757     0.2162E-3
  4.759     0.2155E-3
  4.762     0.2149E-3
  4.764     0.2142E-3
  4.766     0.2136E-3
  4.768     0.2129E-3
  4.770     0.2123E-3
  4.773     0.2116E-3
  4.775     0.2110E-3
  4.777     0.2104E-3
  4.779     0.2097E-3
  4.781     0.2091E-3
  4.783     0.2085E-3
  4.786     0.2079E-3
  4.788     0.2072E-3
  4.790     0.2066E-3
  4.792     0.2060E-3
  4.794     0.2054E-3
  4.797     0.2048E-3
  4.799     0.2042E-3
  4.801     0.2036E-3
  4.803     0.2030E-3
  4.805     0.2024E-3
  4.808     0.2018E-3
  4.810     0.2012E-3
  4.812     0.2006E-3
  4.814     0.2001E-3
  4.816     0.1995E-3
  4.819     0.1989E-3
  4.821     0.1983E-3
  4.823     0.1978E-3
  4.825     0.1972E-3
  4.827     0.1966E-3
  4.829     0.1961E-3
  4.832     0.1955E-3
  4.834     0.1950E-3
  4.836     0.1944E-3
  4.838     0.1939E-3
  4.840     0.1933E-3
  4.843     0.1928E-3
  4.845     0.1922E-3
  4.847     0.1917E-3
  4.849     0.1911E-3
  4.851     0.1906E-3
  4.854     0.1901E-3
  4.856     0.1895E-3
  4.858     0.1890E-3
  4.860     0.1885E-3
  4.862     0.1880E-3
  4.865     0.1874E-3
  4.867     0.1869E-3
  4.869     0.1864E-3
  4.871     0.1859E-3
  4.873     0.1854E-3
  4.876     0.1849E-3
  4.878     0.1844E-3
  4.880     0.1839E-3
  4.882     0.1834E-3
  4.884     0.1829E-3
  4.886     0.1824E-3
# 
# 05/03/2019 at 10:41 YPP @ login1.stampede2.tacc.utexas.edu [start]
# 05/03/2019 at 10:41                                        [end]
#  
# Timing   [Min/Max/Average]: 04s/04s/04s
#
# .-Input file : amp.in
# | excitons                     # [R] Excitons
# | amplitude                    # [R] Amplitude
# | BoseTemp=  0.02585     eV    # Bosonic Temperature
# | States= "1 - 10"             # Index of the BS state(s)
# | #DipWeight                   #  Weight the contribution to the exciton WFs with the dipoles
# | Degen_Step=0.1000E-4   eV    # Maximum energy separation of two degenerate states
