#                                                           
#  ____  ____     _       ____    ____  ______      ___     
# |_  _||_  _|   / \     |_   \  /   _||_   _ \   ."   `.   
#   \ \  / /    / _ \      |   \/   |    | |_) | /  .-.  \  
#    \ \/ /    / ___ \     | |\  /| |    |  __". | |   | |  
#    _|  |_  _/ /   \ \_  _| |_\/_| |_  _| |__) |\  `-"  /  
#   |______||____| |____||_____||_____||_______/  `.___."   
#                                                           
#                                                           
#                                                           
#              GPL Version 4.1.4 Revision 76                
#                        MPI Build                          
#                http://www.yambo-code.org                  
#
# BSK|Identifier              :5641
#    |Dimension               :11943
#    |Bands                   :121 - 172
#    |Exchange           [res]: yes
#    |Correlation        [res]: yes
#    |Kernel`s coupling       : no
#    |Exchange           [cpl]: no
#    |Correlation        [cpl]: no
#    |W interaction is bare   : no
#    |ALDA kernel in R-space  : no
#    |RL vectors    [exchange]:31669
#    |RL vectors [correlation]:387
#    |E/h energy range    [ev]:-1.000000 - -1.000000
#    |Coupling range     [o/o]: 100.0000 -  100.0000
#  W |Interaction is diagonal : no
#    |Matrix size             :2845
#    |Bands                   :1 - 570
#    |e/h energy range    [ev]:-1.000000 - -1.000000
#    |Poles              [o/o]: 100.0000
#    |RL vectors in the sum   :31669
#    |[r,Vnl] included        : yes
#    |Field direction         :-.8660E-5 0.5000E-5  0.000000
#    |Coulomb Cutoff          :box z
#    |xc-Kernel               :none
# RIM|RL components      [col]:0
#    |Random points      [col]:0
#
# Electron-Hole pairs that contributes to Excitonic State 10 more than 5%
#
#  E    [eV]  Amplitude
#  
    1.5162     0.0020
    1.5182     0.0020
    1.5203     0.0021
    1.5223     0.0021
    1.5244     0.0021
    1.5264     0.0021
    1.5285     0.0021
    1.5305     0.0021
    1.5326     0.0022
    1.5347     0.0022
    1.5367     0.0022
    1.5388     0.0022
    1.5408     0.0022
    1.5429     0.0023
    1.5449     0.0023
    1.5470     0.0023
    1.5490     0.0023
    1.5511     0.0023
    1.5532     0.0024
    1.5552     0.0024
    1.5573     0.0024
    1.5593     0.0024
    1.5614     0.0024
    1.5634     0.0025
    1.5655     0.0025
    1.5675     0.0025
    1.5696     0.0025
    1.5717     0.0025
    1.5737     0.0026
    1.5758     0.0026
    1.5778     0.0026
    1.5799     0.0026
    1.5819     0.0027
    1.5840     0.0027
    1.5860     0.0027
    1.5881     0.0027
    1.5902     0.0028
    1.5922     0.0028
    1.5943     0.0028
    1.5963     0.0029
    1.5984     0.0029
    1.6004     0.0029
    1.6025     0.0029
    1.6045     0.0030
    1.6066     0.0030
    1.6087     0.0030
    1.6107     0.0031
    1.6128     0.0031
    1.6148     0.0031
    1.6169     0.0031
    1.6189     0.0032
    1.6210     0.0032
    1.6230     0.0032
    1.6251     0.0033
    1.6272     0.0033
    1.6292     0.0033
    1.6313     0.0034
    1.6333     0.0034
    1.6354     0.0034
    1.6374     0.0035
    1.6395     0.0035
    1.6415     0.0036
    1.6436     0.0036
    1.6457     0.0036
    1.6477     0.0037
    1.6498     0.0037
    1.6518     0.0038
    1.6539     0.0038
    1.6559     0.0038
    1.6580     0.0039
    1.6600     0.0039
    1.6621     0.0040
    1.6642     0.0040
    1.6662     0.0041
    1.6683     0.0041
    1.6703     0.0042
    1.6724     0.0042
    1.6744     0.0043
    1.6765     0.0043
    1.6785     0.0044
    1.6806     0.0044
    1.6827     0.0045
    1.6847     0.0045
    1.6868     0.0046
    1.6888     0.0046
    1.6909     0.0047
    1.6929     0.0047
    1.6950     0.0048
    1.6971     0.0049
    1.6991     0.0049
    1.7012     0.0050
    1.7032     0.0050
    1.7053     0.0051
    1.7073     0.0052
    1.7094     0.0052
    1.7114     0.0053
    1.7135     0.0054
    1.7156     0.0054
    1.7176     0.0055
    1.7197     0.0056
    1.7217     0.0057
    1.7238     0.0057
    1.7258     0.0058
    1.7279     0.0059
    1.7299     0.0060
    1.7320     0.0061
    1.7341     0.0062
    1.7361     0.0062
    1.7382     0.0063
    1.7402     0.0064
    1.7423     0.0065
    1.7443     0.0066
    1.7464     0.0067
    1.7484     0.0068
    1.7505     0.0069
    1.7526     0.0070
    1.7546     0.0071
    1.7567     0.0072
    1.7587     0.0073
    1.7608     0.0075
    1.7628     0.0076
    1.7649     0.0077
    1.7669     0.0078
    1.7690     0.0079
    1.7711     0.0081
    1.7731     0.0082
    1.7752     0.0083
    1.7772     0.0085
    1.7793     0.0086
    1.7813     0.0088
    1.7834     0.0089
    1.7854     0.0091
    1.7875     0.0092
    1.7896     0.0094
    1.7916     0.0095
    1.7937     0.0097
    1.7957     0.0099
   1.79778    0.01006
   1.79983    0.01024
   1.80189    0.01043
   1.80394    0.01062
   1.80600    0.01082
   1.80805    0.01102
   1.81011    0.01123
   1.81217    0.01145
   1.81422    0.01167
   1.81628    0.01190
   1.81833    0.01213
   1.82039    0.01238
   1.82244    0.01263
   1.82450    0.01288
   1.82656    0.01315
   1.82861    0.01342
   1.83067    0.01370
   1.83272    0.01400
   1.83478    0.01430
   1.83683    0.01461
   1.83889    0.01493
   1.84094    0.01526
   1.84300    0.01560
   1.84506    0.01595
   1.84711    0.01632
   1.84917    0.01670
   1.85122    0.01709
   1.85328    0.01750
   1.85533    0.01792
   1.85739    0.01836
   1.85945    0.01881
   1.86150    0.01928
   1.86356    0.01976
   1.86561    0.02027
   1.86767    0.02079
   1.86972    0.02134
   1.87178    0.02191
   1.87383    0.02250
   1.87589    0.02311
   1.87795    0.02375
   1.88000    0.02442
   1.88206    0.02512
   1.88411    0.02584
   1.88617    0.02660
   1.88822    0.02739
   1.89028    0.02822
   1.89234    0.02908
   1.89439    0.02998
   1.89645    0.03093
   1.89850    0.03192
   1.90056    0.03297
   1.90261    0.03406
   1.90467    0.03521
   1.90673    0.03641
   1.90878    0.03768
   1.91084    0.03902
   1.91289    0.04043
   1.91495    0.04192
   1.91700    0.04348
   1.91906    0.04514
   1.92111    0.04690
   1.92317    0.04876
   1.92523    0.05073
   1.92728    0.05282
   1.92934    0.05504
   1.93139    0.05740
   1.93345    0.05992
   1.93550    0.06261
   1.93756    0.06548
   1.93962    0.06855
   1.94167    0.07183
   1.94373    0.07536
   1.94578    0.07915
   1.94784    0.08323
   1.94989    0.08762
   1.95195    0.09237
   1.95400    0.09750
  1.956060   0.103067
  1.958116   0.109112
  1.960172   0.115690
  1.962227   0.122865
  1.964283   0.130706
  1.966339   0.139296
  1.968394   0.148727
  1.970450   0.159106
  1.972505   0.170556
  1.974561   0.183219
  1.976617   0.197254
  1.978672   0.212848
  1.980728   0.230213
  1.982784   0.249590
  1.984839   0.271246
  1.986895   0.295485
  1.988950   0.322633
  1.991006   0.353039
  1.993062   0.387046
  1.995117   0.424974
  1.997173   0.467069
  1.999229   0.513436
  2.001284   0.563925
  2.003340   0.618043
  2.005396   0.674812
  2.007451   0.732689
  2.009507   0.789578
  2.011563   0.842981
  2.013618   0.890397
  2.015674   0.929792
  2.017730   0.960047
  2.019785   0.981141
  2.021841   0.993975
  2.023896   0.999869
  2.025952   1.000000
  2.028008   0.995017
  2.030063   0.984951
  2.032119   0.969409
  2.034174   0.947910
  2.036230   0.920173
  2.038286   0.886293
  2.040341   0.846740
  2.042397   0.802319
  2.044453   0.754130
  2.046508   0.703478
  2.048564   0.651790
  2.050620   0.600469
  2.052675   0.550765
  2.054731   0.503632
  2.056787   0.459708
  2.058842   0.419330
  2.060898   0.382586
  2.062953   0.349396
  2.065009   0.319557
  2.067065   0.292805
  2.069120   0.268852
  2.071176   0.247412
  2.073231   0.228208
  2.075287   0.210985
  2.077343   0.195510
  2.079398   0.181583
  2.081454   0.169018
  2.083510   0.157658
  2.085565   0.147362
  2.087621   0.138009
  2.089677   0.129493
  2.091732   0.121721
  2.093788   0.114611
  2.095844   0.108094
  2.097899   0.102107
   2.09995    0.09660
   2.10201    0.09151
   2.10407    0.08681
   2.10612    0.08246
   2.10818    0.07843
   2.11023    0.07468
   2.11229    0.07119
   2.11434    0.06794
   2.11640    0.06490
   2.11846    0.06206
   2.12051    0.05940
   2.12257    0.05691
   2.12462    0.05457
   2.12668    0.05237
   2.12873    0.05030
   2.13079    0.04836
   2.13284    0.04652
   2.13490    0.04478
   2.13696    0.04314
   2.13901    0.04159
   2.14107    0.04011
   2.14312    0.03872
   2.14518    0.03740
   2.14723    0.03614
   2.14929    0.03495
   2.15135    0.03381
   2.15340    0.03273
   2.15546    0.03170
   2.15751    0.03071
   2.15957    0.02977
   2.16162    0.02888
   2.16368    0.02802
   2.16574    0.02720
   2.16779    0.02642
   2.16985    0.02567
   2.17190    0.02495
   2.17396    0.02426
   2.17601    0.02360
   2.17807    0.02297
   2.18012    0.02236
   2.18218    0.02177
   2.18424    0.02121
   2.18629    0.02067
   2.18835    0.02015
   2.19040    0.01965
   2.19246    0.01916
   2.19451    0.01870
   2.19657    0.01825
   2.19863    0.01782
   2.20068    0.01740
   2.20274    0.01700
   2.20479    0.01661
   2.20685    0.01623
   2.20890    0.01587
   2.21096    0.01552
   2.21301    0.01518
   2.21507    0.01485
   2.21713    0.01453
   2.21918    0.01422
   2.22124    0.01393
   2.22329    0.01364
   2.22535    0.01336
   2.22740    0.01309
   2.22946    0.01282
   2.23152    0.01257
   2.23357    0.01232
   2.23563    0.01208
   2.23768    0.01184
   2.23974    0.01162
   2.24179    0.01140
   2.24385    0.01118
   2.24590    0.01097
   2.24796    0.01077
   2.25002    0.01058
   2.25207    0.01038
   2.25413    0.01020
   2.25618    0.01002
    2.2582     0.0098
    2.2603     0.0097
    2.2624     0.0095
    2.2644     0.0093
    2.2665     0.0092
    2.2685     0.0090
    2.2706     0.0089
    2.2726     0.0087
    2.2747     0.0086
    2.2767     0.0084
    2.2788     0.0083
    2.2809     0.0082
    2.2829     0.0080
    2.2850     0.0079
    2.2870     0.0078
    2.2891     0.0077
    2.2911     0.0075
    2.2932     0.0074
    2.2952     0.0073
    2.2973     0.0072
    2.2994     0.0071
    2.3014     0.0070
    2.3035     0.0069
    2.3055     0.0068
    2.3076     0.0067
    2.3096     0.0066
    2.3117     0.0065
    2.3137     0.0064
    2.3158     0.0063
    2.3179     0.0062
    2.3199     0.0061
    2.3220     0.0061
    2.3240     0.0060
    2.3261     0.0059
    2.3281     0.0058
    2.3302     0.0057
    2.3322     0.0057
    2.3343     0.0056
    2.3364     0.0055
    2.3384     0.0054
    2.3405     0.0054
    2.3425     0.0053
    2.3446     0.0052
    2.3466     0.0052
    2.3487     0.0051
    2.3507     0.0050
    2.3528     0.0050
    2.3549     0.0049
    2.3569     0.0048
    2.3590     0.0048
    2.3610     0.0047
    2.3631     0.0047
    2.3651     0.0046
    2.3672     0.0046
    2.3692     0.0045
    2.3713     0.0045
    2.3734     0.0044
    2.3754     0.0043
    2.3775     0.0043
    2.3795     0.0042
    2.3816     0.0042
    2.3836     0.0042
    2.3857     0.0041
    2.3877     0.0041
    2.3898     0.0040
    2.3919     0.0040
    2.3939     0.0039
    2.3960     0.0039
    2.3980     0.0038
    2.4001     0.0038
    2.4021     0.0038
    2.4042     0.0037
    2.4062     0.0037
    2.4083     0.0036
    2.4104     0.0036
    2.4124     0.0036
    2.4145     0.0035
    2.4165     0.0035
    2.4186     0.0034
    2.4206     0.0034
    2.4227     0.0034
    2.4247     0.0033
    2.4268     0.0033
    2.4289     0.0033
    2.4309     0.0032
    2.4330     0.0032
    2.4350     0.0032
    2.4371     0.0031
    2.4391     0.0031
    2.4412     0.0031
    2.4432     0.0031
    2.4453     0.0030
    2.4474     0.0030
    2.4494     0.0030
    2.4515     0.0029
    2.4535     0.0029
    2.4556     0.0029
    2.4576     0.0029
    2.4597     0.0028
    2.4617     0.0028
    2.4638     0.0028
    2.4659     0.0027
    2.4679     0.0027
    2.4700     0.0027
    2.4720     0.0027
    2.4741     0.0026
    2.4761     0.0026
    2.4782     0.0026
    2.4802     0.0026
    2.4823     0.0026
    2.4844     0.0025
    2.4864     0.0025
    2.4885     0.0025
  2.491     0.2467E-2
  2.493     0.2446E-2
  2.495     0.2424E-2
  2.497     0.2404E-2
  2.499     0.2383E-2
  2.501     0.2363E-2
  2.503     0.2342E-2
  2.505     0.2323E-2
  2.507     0.2303E-2
  2.509     0.2284E-2
  2.511     0.2265E-2
  2.513     0.2246E-2
  2.515     0.2227E-2
  2.517     0.2209E-2
  2.519     0.2191E-2
  2.521     0.2173E-2
  2.523     0.2155E-2
  2.525     0.2138E-2
  2.528     0.2120E-2
  2.530     0.2103E-2
  2.532     0.2086E-2
  2.534     0.2070E-2
  2.536     0.2053E-2
  2.538     0.2037E-2
  2.540     0.2021E-2
  2.542     0.2005E-2
  2.544     0.1990E-2
  2.546     0.1974E-2
  2.548     0.1959E-2
  2.550     0.1944E-2
  2.552     0.1929E-2
  2.554     0.1914E-2
  2.556     0.1900E-2
  2.558     0.1886E-2
  2.560     0.1871E-2
  2.562     0.1857E-2
  2.565     0.1843E-2
  2.567     0.1830E-2
  2.569     0.1816E-2
  2.571     0.1803E-2
  2.573     0.1790E-2
  2.575     0.1776E-2
  2.577     0.1764E-2
  2.579     0.1751E-2
  2.581     0.1738E-2
  2.583     0.1726E-2
  2.585     0.1713E-2
  2.587     0.1701E-2
  2.589     0.1689E-2
  2.591     0.1677E-2
  2.593     0.1665E-2
  2.595     0.1654E-2
  2.597     0.1642E-2
  2.599     0.1631E-2
  2.602     0.1619E-2
  2.604     0.1608E-2
  2.606     0.1597E-2
  2.608     0.1586E-2
  2.610     0.1575E-2
  2.612     0.1565E-2
  2.614     0.1554E-2
  2.616     0.1544E-2
  2.618     0.1533E-2
  2.620     0.1523E-2
  2.622     0.1513E-2
  2.624     0.1503E-2
  2.626     0.1493E-2
  2.628     0.1483E-2
  2.630     0.1474E-2
  2.632     0.1464E-2
  2.634     0.1455E-2
  2.636     0.1445E-2
  2.639     0.1436E-2
  2.641     0.1427E-2
  2.643     0.1418E-2
  2.645     0.1409E-2
  2.647     0.1400E-2
  2.649     0.1391E-2
  2.651     0.1382E-2
  2.653     0.1374E-2
  2.655     0.1365E-2
  2.657     0.1357E-2
  2.659     0.1349E-2
  2.661     0.1340E-2
  2.663     0.1332E-2
  2.665     0.1324E-2
  2.667     0.1316E-2
  2.669     0.1308E-2
  2.671     0.1300E-2
  2.673     0.1293E-2
  2.676     0.1285E-2
  2.678     0.1277E-2
  2.680     0.1270E-2
  2.682     0.1263E-2
  2.684     0.1255E-2
  2.686     0.1248E-2
  2.688     0.1241E-2
  2.690     0.1234E-2
  2.692     0.1227E-2
  2.694     0.1220E-2
  2.696     0.1213E-2
  2.698     0.1206E-2
  2.700     0.1199E-2
  2.702     0.1193E-2
  2.704     0.1186E-2
  2.706     0.1179E-2
  2.708     0.1173E-2
  2.710     0.1167E-2
  2.713     0.1160E-2
  2.715     0.1154E-2
  2.717     0.1148E-2
  2.719     0.1142E-2
  2.721     0.1136E-2
  2.723     0.1130E-2
  2.725     0.1124E-2
  2.727     0.1118E-2
  2.729     0.1112E-2
  2.731     0.1106E-2
  2.733     0.1101E-2
  2.735     0.1095E-2
  2.737     0.1090E-2
  2.739     0.1084E-2
  2.741     0.1079E-2
  2.743     0.1073E-2
  2.745     0.1068E-2
  2.747     0.1063E-2
  2.750     0.1058E-2
  2.752     0.1053E-2
  2.754     0.1048E-2
  2.756     0.1043E-2
  2.758     0.1038E-2
  2.760     0.1033E-2
  2.762     0.1028E-2
  2.764     0.1023E-2
  2.766     0.1018E-2
  2.768     0.1014E-2
  2.770     0.1009E-2
  2.772     0.1005E-2
  2.774     0.1000E-2
  2.776     0.9959E-3
  2.778     0.9916E-3
  2.780     0.9873E-3
  2.782     0.9831E-3
  2.784     0.9789E-3
  2.787     0.9748E-3
  2.789     0.9708E-3
  2.791     0.9668E-3
  2.793     0.9629E-3
  2.795     0.9590E-3
  2.797     0.9552E-3
  2.799     0.9515E-3
  2.801     0.9478E-3
  2.803     0.9441E-3
  2.805     0.9406E-3
  2.807     0.9371E-3
  2.809     0.9336E-3
  2.811     0.9302E-3
  2.813     0.9269E-3
  2.815     0.9237E-3
  2.817     0.9205E-3
  2.819     0.9173E-3
  2.821     0.9143E-3
  2.824     0.9113E-3
  2.826     0.9083E-3
  2.828     0.9055E-3
  2.830     0.9027E-3
  2.832     0.8999E-3
  2.834     0.8973E-3
  2.836     0.8947E-3
  2.838     0.8921E-3
  2.840     0.8897E-3
  2.842     0.8873E-3
  2.844     0.8850E-3
  2.846     0.8828E-3
  2.848     0.8806E-3
  2.850     0.8785E-3
  2.852     0.8766E-3
  2.854     0.8746E-3
  2.856     0.8728E-3
  2.858     0.8711E-3
  2.861     0.8694E-3
  2.863     0.8678E-3
  2.865     0.8664E-3
  2.867     0.8650E-3
  2.869     0.8637E-3
  2.871     0.8625E-3
  2.873     0.8614E-3
  2.875     0.8604E-3
  2.877     0.8596E-3
  2.879     0.8588E-3
  2.881     0.8581E-3
  2.883     0.8576E-3
  2.885     0.8572E-3
  2.887     0.8569E-3
  2.889     0.8567E-3
  2.891     0.8567E-3
  2.893     0.8568E-3
  2.895     0.8570E-3
  2.898     0.8574E-3
  2.900     0.8580E-3
  2.902     0.8587E-3
  2.904     0.8596E-3
  2.906     0.8606E-3
  2.908     0.8619E-3
  2.910     0.8633E-3
  2.912     0.8649E-3
  2.914     0.8667E-3
  2.916     0.8688E-3
  2.918     0.8710E-3
  2.920     0.8735E-3
  2.922     0.8763E-3
  2.924     0.8793E-3
  2.926     0.8825E-3
  2.928     0.8861E-3
  2.930     0.8899E-3
  2.932     0.8941E-3
  2.935     0.8986E-3
  2.937     0.9034E-3
  2.939     0.9086E-3
  2.941     0.9142E-3
  2.943     0.9203E-3
  2.945     0.9267E-3
  2.947     0.9336E-3
  2.949     0.9411E-3
  2.951     0.9490E-3
  2.953     0.9575E-3
  2.955     0.9666E-3
  2.957     0.9763E-3
  2.959     0.9867E-3
  2.961     0.9978E-3
  2.963     0.1010E-2
  2.965     0.1022E-2
  2.967     0.1036E-2
  2.969     0.1051E-2
  2.972     0.1066E-2
  2.974     0.1083E-2
  2.976     0.1101E-2
  2.978     0.1120E-2
  2.980     0.1140E-2
  2.982     0.1163E-2
  2.984     0.1186E-2
  2.986     0.1212E-2
  2.988     0.1239E-2
  2.990     0.1269E-2
  2.992     0.1301E-2
  2.994     0.1335E-2
  2.996     0.1372E-2
  2.998     0.1413E-2
  3.000     0.1456E-2
  3.002     0.1504E-2
  3.004     0.1555E-2
  3.006     0.1611E-2
  3.009     0.1672E-2
  3.011     0.1739E-2
  3.013     0.1812E-2
  3.015     0.1892E-2
  3.017     0.1980E-2
  3.019     0.2077E-2
  3.021     0.2184E-2
  3.023     0.2302E-2
  3.025     0.2433E-2
  3.027     0.2579E-2
  3.029     0.2741E-2
  3.031     0.2922E-2
    3.0332     0.0031
    3.0353     0.0034
    3.0373     0.0036
    3.0394     0.0039
    3.0414     0.0042
    3.0435     0.0046
    3.0455     0.0050
    3.0476     0.0054
    3.0497     0.0060
    3.0517     0.0065
    3.0538     0.0072
    3.0558     0.0078
    3.0579     0.0086
    3.0599     0.0093
   3.06199    0.01009
   3.06405    0.01080
   3.06610    0.01142
   3.06816    0.01190
   3.07021    0.01219
   3.07227    0.01225
   3.07433    0.01208
   3.07638    0.01169
   3.07844    0.01113
   3.08049    0.01046
    3.0825     0.0097
    3.0846     0.0089
    3.0867     0.0082
    3.0887     0.0075
    3.0908     0.0068
    3.0928     0.0062
    3.0949     0.0057
    3.0969     0.0052
    3.0990     0.0047
    3.1010     0.0043
    3.1031     0.0040
    3.1052     0.0037
    3.1072     0.0034
    3.1093     0.0032
  3.111     0.2953E-2
  3.113     0.2758E-2
  3.115     0.2582E-2
  3.117     0.2424E-2
  3.120     0.2282E-2
  3.122     0.2153E-2
  3.124     0.2036E-2
  3.126     0.1930E-2
  3.128     0.1834E-2
  3.130     0.1746E-2
  3.132     0.1665E-2
  3.134     0.1591E-2
  3.136     0.1523E-2
  3.138     0.1461E-2
  3.140     0.1403E-2
  3.142     0.1350E-2
  3.144     0.1300E-2
  3.146     0.1254E-2
  3.148     0.1211E-2
  3.150     0.1172E-2
  3.152     0.1135E-2
  3.154     0.1100E-2
  3.157     0.1067E-2
  3.159     0.1037E-2
  3.161     0.1008E-2
  3.163     0.9813E-3
  3.165     0.9560E-3
  3.167     0.9321E-3
  3.169     0.9095E-3
  3.171     0.8882E-3
  3.173     0.8680E-3
  3.175     0.8489E-3
  3.177     0.8308E-3
  3.179     0.8135E-3
  3.181     0.7972E-3
  3.183     0.7816E-3
  3.185     0.7667E-3
  3.187     0.7526E-3
  3.189     0.7391E-3
  3.191     0.7262E-3
  3.194     0.7138E-3
  3.196     0.7020E-3
  3.198     0.6907E-3
  3.200     0.6798E-3
  3.202     0.6694E-3
  3.204     0.6594E-3
  3.206     0.6498E-3
  3.208     0.6406E-3
  3.210     0.6317E-3
  3.212     0.6231E-3
  3.214     0.6149E-3
  3.216     0.6069E-3
  3.218     0.5992E-3
  3.220     0.5918E-3
  3.222     0.5846E-3
  3.224     0.5777E-3
  3.226     0.5710E-3
  3.228     0.5645E-3
  3.231     0.5582E-3
  3.233     0.5521E-3
  3.235     0.5462E-3
  3.237     0.5405E-3
  3.239     0.5349E-3
  3.241     0.5295E-3
  3.243     0.5243E-3
  3.245     0.5192E-3
  3.247     0.5142E-3
  3.249     0.5094E-3
  3.251     0.5047E-3
  3.253     0.5001E-3
  3.255     0.4957E-3
  3.257     0.4913E-3
  3.259     0.4871E-3
  3.261     0.4830E-3
  3.263     0.4789E-3
  3.266     0.4750E-3
  3.268     0.4711E-3
  3.270     0.4674E-3
  3.272     0.4637E-3
  3.274     0.4601E-3
  3.276     0.4566E-3
  3.278     0.4532E-3
  3.280     0.4498E-3
  3.282     0.4465E-3
  3.284     0.4433E-3
  3.286     0.4401E-3
  3.288     0.4370E-3
  3.290     0.4340E-3
  3.292     0.4310E-3
  3.294     0.4281E-3
  3.296     0.4252E-3
  3.298     0.4224E-3
  3.300     0.4197E-3
  3.303     0.4169E-3
  3.305     0.4143E-3
  3.307     0.4117E-3
  3.309     0.4091E-3
  3.311     0.4066E-3
  3.313     0.4041E-3
  3.315     0.4017E-3
  3.317     0.3993E-3
  3.319     0.3969E-3
  3.321     0.3946E-3
  3.323     0.3923E-3
  3.325     0.3900E-3
  3.327     0.3878E-3
  3.329     0.3856E-3
  3.331     0.3835E-3
  3.333     0.3814E-3
  3.335     0.3793E-3
  3.337     0.3772E-3
  3.340     0.3752E-3
  3.342     0.3732E-3
  3.344     0.3712E-3
  3.346     0.3693E-3
  3.348     0.3674E-3
  3.350     0.3655E-3
  3.352     0.3636E-3
  3.354     0.3618E-3
  3.356     0.3600E-3
  3.358     0.3582E-3
  3.360     0.3564E-3
  3.362     0.3547E-3
  3.364     0.3529E-3
  3.366     0.3512E-3
  3.368     0.3495E-3
  3.370     0.3479E-3
  3.372     0.3462E-3
  3.374     0.3446E-3
  3.377     0.3430E-3
  3.379     0.3414E-3
  3.381     0.3398E-3
  3.383     0.3383E-3
  3.385     0.3367E-3
  3.387     0.3352E-3
  3.389     0.3337E-3
  3.391     0.3322E-3
  3.393     0.3308E-3
  3.395     0.3293E-3
  3.397     0.3279E-3
  3.399     0.3264E-3
  3.401     0.3250E-3
  3.403     0.3236E-3
  3.405     0.3222E-3
  3.407     0.3209E-3
  3.409     0.3195E-3
  3.411     0.3182E-3
  3.414     0.3169E-3
  3.416     0.3155E-3
  3.418     0.3142E-3
  3.420     0.3129E-3
  3.422     0.3117E-3
  3.424     0.3104E-3
  3.426     0.3091E-3
  3.428     0.3079E-3
  3.430     0.3067E-3
  3.432     0.3054E-3
  3.434     0.3042E-3
  3.436     0.3030E-3
  3.438     0.3018E-3
  3.440     0.3007E-3
  3.442     0.2995E-3
  3.444     0.2983E-3
  3.446     0.2972E-3
  3.448     0.2960E-3
  3.451     0.2949E-3
  3.453     0.2938E-3
  3.455     0.2927E-3
  3.457     0.2916E-3
  3.459     0.2905E-3
  3.461     0.2894E-3
  3.463     0.2883E-3
  3.465     0.2872E-3
  3.467     0.2862E-3
  3.469     0.2851E-3
  3.471     0.2841E-3
  3.473     0.2831E-3
  3.475     0.2820E-3
  3.477     0.2810E-3
  3.479     0.2800E-3
  3.481     0.2790E-3
  3.483     0.2780E-3
  3.485     0.2770E-3
  3.488     0.2760E-3
  3.490     0.2750E-3
  3.492     0.2741E-3
  3.494     0.2731E-3
  3.496     0.2722E-3
  3.498     0.2712E-3
  3.500     0.2703E-3
  3.502     0.2693E-3
  3.504     0.2684E-3
  3.506     0.2675E-3
  3.508     0.2666E-3
  3.510     0.2657E-3
  3.512     0.2648E-3
  3.514     0.2639E-3
  3.516     0.2630E-3
  3.518     0.2621E-3
  3.520     0.2612E-3
  3.522     0.2603E-3
  3.525     0.2595E-3
  3.527     0.2586E-3
  3.529     0.2577E-3
  3.531     0.2569E-3
  3.533     0.2560E-3
  3.535     0.2552E-3
  3.537     0.2544E-3
  3.539     0.2535E-3
  3.541     0.2527E-3
  3.543     0.2519E-3
  3.545     0.2511E-3
  3.547     0.2503E-3
  3.549     0.2495E-3
  3.551     0.2487E-3
  3.553     0.2479E-3
  3.555     0.2471E-3
  3.557     0.2463E-3
  3.559     0.2455E-3
  3.562     0.2447E-3
  3.564     0.2440E-3
  3.566     0.2432E-3
  3.568     0.2424E-3
  3.570     0.2417E-3
# 
# 05/03/2019 at 12:55 YPP @ login2.stampede2.tacc.utexas.edu [start]
# 05/03/2019 at 12:55                                        [end]
#  
# Timing   [Min/Max/Average]: 03s/03s/03s
#
# .-Input file : amp.in
# | excitons                     # [R] Excitons
# | amplitude                    # [R] Amplitude
# | BoseTemp=  0.02585     eV    # Bosonic Temperature
# | States= "1 - 10"             # Index of the BS state(s)
# | #DipWeight                   #  Weight the contribution to the exciton WFs with the dipoles
# | Degen_Step=0.1000E-4   eV    # Maximum energy separation of two degenerate states
