#                                                           
#  ____  ____     _       ____    ____  ______      ___     
# |_  _||_  _|   / \     |_   \  /   _||_   _ \   ."   `.   
#   \ \  / /    / _ \      |   \/   |    | |_) | /  .-.  \  
#    \ \/ /    / ___ \     | |\  /| |    |  __". | |   | |  
#    _|  |_  _/ /   \ \_  _| |_\/_| |_  _| |__) |\  `-"  /  
#   |______||____| |____||_____||_____||_______/  `.___."   
#                                                           
#                                                           
#                                                           
#              GPL Version 4.1.4 Revision 76                
#                        MPI Build                          
#                http://www.yambo-code.org                  
#
# BSK|Identifier              :5641
#    |Dimension               :11943
#    |Bands                   :121 - 172
#    |Exchange           [res]: yes
#    |Correlation        [res]: yes
#    |Kernel`s coupling       : no
#    |Exchange           [cpl]: no
#    |Correlation        [cpl]: no
#    |W interaction is bare   : no
#    |ALDA kernel in R-space  : no
#    |RL vectors    [exchange]:31669
#    |RL vectors [correlation]:387
#    |E/h energy range    [ev]:-1.000000 - -1.000000
#    |Coupling range     [o/o]: 100.0000 -  100.0000
#  W |Interaction is diagonal : no
#    |Matrix size             :2845
#    |Bands                   :1 - 570
#    |e/h energy range    [ev]:-1.000000 - -1.000000
#    |Poles              [o/o]: 100.0000
#    |RL vectors in the sum   :31669
#    |[r,Vnl] included        : yes
#    |Field direction         :-.8660E-5 0.5000E-5  0.000000
#    |Coulomb Cutoff          :box z
#    |xc-Kernel               :none
# RIM|RL components      [col]:0
#    |Random points      [col]:0
#
# Electron-Hole pairs that contributes to Excitonic State 7 more than 5%
#
#  E    [eV]  Amplitude
#  
  1.531     0.1177E-2
  1.534     0.1183E-2
  1.538     0.1190E-2
  1.541     0.1196E-2
  1.544     0.1202E-2
  1.548     0.1208E-2
  1.551     0.1214E-2
  1.555     0.1221E-2
  1.558     0.1227E-2
  1.562     0.1234E-2
  1.565     0.1240E-2
  1.569     0.1247E-2
  1.572     0.1254E-2
  1.576     0.1261E-2
  1.579     0.1268E-2
  1.583     0.1275E-2
  1.586     0.1282E-2
  1.589     0.1289E-2
  1.593     0.1296E-2
  1.596     0.1303E-2
  1.600     0.1311E-2
  1.603     0.1318E-2
  1.607     0.1326E-2
  1.610     0.1334E-2
  1.614     0.1341E-2
  1.617     0.1349E-2
  1.621     0.1357E-2
  1.624     0.1365E-2
  1.627     0.1373E-2
  1.631     0.1382E-2
  1.634     0.1390E-2
  1.638     0.1399E-2
  1.641     0.1407E-2
  1.645     0.1416E-2
  1.648     0.1425E-2
  1.652     0.1434E-2
  1.655     0.1443E-2
  1.659     0.1452E-2
  1.662     0.1462E-2
  1.665     0.1471E-2
  1.669     0.1481E-2
  1.672     0.1491E-2
  1.676     0.1501E-2
  1.679     0.1511E-2
  1.683     0.1521E-2
  1.686     0.1532E-2
  1.690     0.1542E-2
  1.693     0.1553E-2
  1.697     0.1564E-2
  1.700     0.1576E-2
  1.703     0.1587E-2
  1.707     0.1599E-2
  1.710     0.1610E-2
  1.714     0.1623E-2
  1.717     0.1635E-2
  1.721     0.1647E-2
  1.724     0.1660E-2
  1.728     0.1673E-2
  1.731     0.1686E-2
  1.735     0.1700E-2
  1.738     0.1714E-2
  1.742     0.1728E-2
  1.745     0.1742E-2
    1.7484     0.0018
    1.7519     0.0018
    1.7553     0.0018
    1.7588     0.0018
    1.7623     0.0018
    1.7657     0.0018
    1.7692     0.0019
    1.7726     0.0019
    1.7761     0.0019
    1.7795     0.0019
    1.7830     0.0019
    1.7865     0.0019
    1.7899     0.0020
    1.7934     0.0020
    1.7968     0.0020
    1.8003     0.0020
    1.8037     0.0021
    1.8072     0.0021
    1.8107     0.0021
    1.8141     0.0021
    1.8176     0.0021
    1.8210     0.0022
    1.8245     0.0022
    1.8279     0.0022
    1.8314     0.0023
    1.8348     0.0023
    1.8383     0.0023
    1.8418     0.0024
    1.8452     0.0024
    1.8487     0.0024
    1.8521     0.0025
    1.8556     0.0025
    1.8590     0.0025
    1.8625     0.0026
    1.8660     0.0026
    1.8694     0.0027
    1.8729     0.0027
    1.8763     0.0028
    1.8798     0.0028
    1.8832     0.0029
    1.8867     0.0029
    1.8902     0.0030
    1.8936     0.0031
    1.8971     0.0031
    1.9005     0.0032
    1.9040     0.0033
    1.9074     0.0034
    1.9109     0.0035
    1.9143     0.0036
    1.9178     0.0037
    1.9213     0.0038
    1.9247     0.0039
    1.9282     0.0041
    1.9316     0.0042
    1.9351     0.0043
    1.9385     0.0045
    1.9420     0.0047
    1.9455     0.0049
    1.9489     0.0051
    1.9524     0.0053
    1.9558     0.0056
    1.9593     0.0059
    1.9627     0.0062
    1.9662     0.0066
    1.9697     0.0069
    1.9731     0.0074
    1.9766     0.0079
    1.9800     0.0084
    1.9835     0.0090
    1.9869     0.0097
   1.99039    0.01044
   1.99385    0.01130
   1.99730    0.01225
   2.00076    0.01331
   2.00422    0.01448
   2.00767    0.01577
   2.01113    0.01715
   2.01459    0.01862
   2.01804    0.02012
   2.02150    0.02162
   2.02496    0.02304
   2.02841    0.02429
   2.03187    0.02530
   2.03533    0.02598
   2.03878    0.02627
   2.04224    0.02615
   2.04570    0.02562
   2.04915    0.02472
   2.05261    0.02353
   2.05607    0.02215
   2.05952    0.02067
   2.06298    0.01916
   2.06644    0.01769
   2.06989    0.01629
   2.07335    0.01500
   2.07681    0.01383
   2.08026    0.01277
   2.08372    0.01182
   2.08717    0.01098
   2.09063    0.01023
    2.0941     0.0096
    2.0975     0.0090
    2.1010     0.0084
    2.1045     0.0080
    2.1079     0.0076
    2.1114     0.0072
    2.1148     0.0069
    2.1183     0.0066
    2.1217     0.0063
    2.1252     0.0061
    2.1287     0.0059
    2.1321     0.0057
    2.1356     0.0055
    2.1390     0.0054
    2.1425     0.0052
    2.1459     0.0051
    2.1494     0.0050
    2.1528     0.0049
    2.1563     0.0048
    2.1598     0.0047
    2.1632     0.0046
    2.1667     0.0046
    2.1701     0.0045
    2.1736     0.0044
    2.1770     0.0044
    2.1805     0.0043
    2.1840     0.0043
    2.1874     0.0043
    2.1909     0.0042
    2.1943     0.0042
    2.1978     0.0042
    2.2012     0.0041
    2.2047     0.0041
    2.2082     0.0041
    2.2116     0.0041
    2.2151     0.0041
    2.2185     0.0041
    2.2220     0.0041
    2.2254     0.0041
    2.2289     0.0040
    2.2323     0.0040
    2.2358     0.0040
    2.2393     0.0040
    2.2427     0.0040
    2.2462     0.0041
    2.2496     0.0041
    2.2531     0.0041
    2.2565     0.0041
    2.2600     0.0041
    2.2635     0.0041
    2.2669     0.0041
    2.2704     0.0041
    2.2738     0.0041
    2.2773     0.0041
    2.2807     0.0042
    2.2842     0.0042
    2.2877     0.0042
    2.2911     0.0042
    2.2946     0.0042
    2.2980     0.0042
    2.3015     0.0043
    2.3049     0.0043
    2.3084     0.0043
    2.3118     0.0043
    2.3153     0.0044
    2.3188     0.0044
    2.3222     0.0044
    2.3257     0.0044
    2.3291     0.0045
    2.3326     0.0045
    2.3360     0.0045
    2.3395     0.0045
    2.3430     0.0046
    2.3464     0.0046
    2.3499     0.0046
    2.3533     0.0047
    2.3568     0.0047
    2.3602     0.0047
    2.3637     0.0048
    2.3672     0.0048
    2.3706     0.0048
    2.3741     0.0049
    2.3775     0.0049
    2.3810     0.0050
    2.3844     0.0050
    2.3879     0.0050
    2.3914     0.0051
    2.3948     0.0051
    2.3983     0.0052
    2.4017     0.0052
    2.4052     0.0052
    2.4086     0.0053
    2.4121     0.0053
    2.4155     0.0054
    2.4190     0.0054
    2.4225     0.0055
    2.4259     0.0055
    2.4294     0.0056
    2.4328     0.0056
    2.4363     0.0057
    2.4397     0.0057
    2.4432     0.0058
    2.4467     0.0058
    2.4501     0.0059
    2.4536     0.0059
    2.4570     0.0060
    2.4605     0.0061
    2.4639     0.0061
    2.4674     0.0062
    2.4709     0.0062
    2.4743     0.0063
    2.4778     0.0064
    2.4812     0.0064
    2.4847     0.0065
    2.4881     0.0066
    2.4916     0.0066
    2.4950     0.0067
    2.4985     0.0068
    2.5020     0.0069
    2.5054     0.0069
    2.5089     0.0070
    2.5123     0.0071
    2.5158     0.0072
    2.5192     0.0072
    2.5227     0.0073
    2.5262     0.0074
    2.5296     0.0075
    2.5331     0.0076
    2.5365     0.0077
    2.5400     0.0078
    2.5434     0.0078
    2.5469     0.0079
    2.5504     0.0080
    2.5538     0.0081
    2.5573     0.0082
    2.5607     0.0083
    2.5642     0.0084
    2.5676     0.0085
    2.5711     0.0087
    2.5745     0.0088
    2.5780     0.0089
    2.5815     0.0090
    2.5849     0.0091
    2.5884     0.0092
    2.5918     0.0094
    2.5953     0.0095
    2.5987     0.0096
    2.6022     0.0097
    2.6057     0.0099
   2.60911    0.01002
   2.61257    0.01016
   2.61603    0.01030
   2.61948    0.01045
   2.62294    0.01060
   2.62639    0.01076
   2.62985    0.01092
   2.63331    0.01108
   2.63676    0.01125
   2.64022    0.01142
   2.64368    0.01160
   2.64713    0.01178
   2.65059    0.01196
   2.65405    0.01215
   2.65750    0.01235
   2.66096    0.01255
   2.66442    0.01275
   2.66787    0.01296
   2.67133    0.01318
   2.67479    0.01341
   2.67824    0.01364
   2.68170    0.01388
   2.68516    0.01412
   2.68861    0.01437
   2.69207    0.01464
   2.69553    0.01491
   2.69898    0.01518
   2.70244    0.01547
   2.70590    0.01577
   2.70935    0.01608
   2.71281    0.01640
   2.71626    0.01673
   2.71972    0.01708
   2.72318    0.01744
   2.72663    0.01781
   2.73009    0.01820
   2.73355    0.01861
   2.73700    0.01903
   2.74046    0.01948
   2.74392    0.01995
   2.74737    0.02044
   2.75083    0.02095
   2.75429    0.02150
   2.75774    0.02208
   2.76120    0.02269
   2.76466    0.02333
   2.76811    0.02401
   2.77157    0.02473
   2.77503    0.02549
   2.77848    0.02628
   2.78194    0.02709
   2.78540    0.02793
   2.78885    0.02876
   2.79231    0.02959
   2.79577    0.03038
   2.79922    0.03113
   2.80268    0.03183
   2.80613    0.03248
   2.80959    0.03310
   2.81305    0.03370
   2.81650    0.03430
   2.81996    0.03493
   2.82342    0.03559
   2.82687    0.03632
   2.83033    0.03711
   2.83379    0.03797
   2.83724    0.03890
   2.84070    0.03993
   2.84416    0.04103
   2.84761    0.04223
   2.85107    0.04353
   2.85453    0.04493
   2.85798    0.04644
   2.86144    0.04806
   2.86490    0.04981
   2.86835    0.05170
   2.87181    0.05373
   2.87527    0.05593
   2.87872    0.05830
   2.88218    0.06088
   2.88564    0.06366
   2.88909    0.06669
   2.89255    0.06997
   2.89600    0.07355
   2.89946    0.07744
   2.90292    0.08167
   2.90637    0.08626
   2.90983    0.09123
   2.91329    0.09659
  2.916744   0.102353
  2.920201   0.108506
  2.923657   0.115038
  2.927114   0.121928
  2.930570   0.129147
  2.934027   0.136656
  2.937483   0.144404
  2.940940   0.152323
  2.944396   0.160335
  2.947853   0.168351
  2.951309   0.176269
  2.954766   0.183982
  2.958222   0.191379
  2.961679   0.198374
  2.965136   0.204937
  2.968592   0.211127
  2.972049   0.217106
  2.975505   0.223129
  2.978962   0.229507
  2.982418   0.236555
  2.985875   0.244549
  2.989331   0.253694
  2.992788   0.264109
  2.996244   0.275830
  2.999701   0.288837
  3.003158   0.303078
  3.006614   0.318519
  3.010071   0.335178
  3.013527   0.353148
  3.016984   0.372604
  3.020440   0.393802
  3.023897   0.417070
  3.027353   0.442802
  3.030810   0.471434
  3.034266   0.503402
  3.037723   0.539070
  3.041179   0.578640
  3.044636   0.622041
  3.048093   0.668843
  3.051549   0.718154
  3.055006   0.768577
  3.058462   0.818239
  3.061919   0.864949
  3.065375   0.906500
  3.068832   0.941081
  3.072288   0.967625
  3.075745   0.985935
  3.079201   0.996490
  3.082658   1.000000
  3.086114   0.996965
  3.089571   0.987427
  3.093028   0.971072
  3.096484   0.947585
  3.099941   0.917072
  3.103397   0.880320
  3.106854   0.838781
  3.110310   0.794299
  3.113767   0.748763
  3.117223   0.703822
  3.120680   0.660749
  3.124136   0.620445
  3.127593   0.583513
  3.131049   0.550343
  3.134506   0.521172
  3.137963   0.496105
  3.141419   0.475131
  3.144876   0.458102
  3.148332   0.444740
  3.151789   0.434620
  3.155245   0.427171
  3.158702   0.421697
  3.162158   0.417422
  3.165615   0.413585
  3.169071   0.409569
  3.172528   0.405019
  3.175985   0.399904
  3.179441   0.394503
  3.182897   0.389282
  3.186354   0.384749
  3.189811   0.381301
  3.193267   0.379108
  3.196724   0.378053
  3.200180   0.377718
  3.203637   0.377425
  3.207093   0.376336
  3.210550   0.373607
  3.214006   0.368576
  3.217463   0.360915
  3.220919   0.350711
  3.224376   0.338425
  3.227832   0.324767
  3.231289   0.310523
  3.234746   0.296398
  3.238202   0.282924
  3.241659   0.270399
  3.245115   0.258903
  3.248572   0.248325
  3.252028   0.238426
  3.255485   0.228914
  3.258941   0.219526
  3.262398   0.210093
  3.265854   0.200577
  3.269311   0.191061
  3.272768   0.181710
  3.276224   0.172715
  3.279680   0.164255
  3.283137   0.156459
  3.286593   0.149413
  3.290050   0.143147
  3.293507   0.137657
  3.296963   0.132906
  3.300420   0.128832
  3.303876   0.125355
  3.307333   0.122380
  3.310789   0.119806
  3.314246   0.117531
  3.317703   0.115473
  3.321159   0.113573
  3.324615   0.111813
  3.328072   0.110207
  3.331529   0.108796
  3.334985   0.107636
  3.338442   0.106785
  3.341898   0.106296
  3.345355   0.106213
  3.348811   0.106572
  3.352268   0.107406
  3.355724   0.108744
  3.359181   0.110617
  3.362638   0.113062
  3.366094   0.116120
  3.369550   0.119840
  3.373007   0.124283
  3.376464   0.129520
  3.379920   0.135633
  3.383377   0.142722
  3.386833   0.150897
  3.390290   0.160285
  3.393746   0.171022
  3.397203   0.183251
  3.400660   0.197117
  3.404116   0.212742
  3.407573   0.230215
  3.411029   0.249540
  3.414485   0.270605
  3.417942   0.293099
  3.421399   0.316473
  3.424855   0.339862
  3.428312   0.362102
  3.431768   0.381791
  3.435225   0.397477
  3.438681   0.407938
  3.442138   0.412455
  3.445595   0.411018
  3.449051   0.404325
  3.452507   0.393610
  3.455964   0.380339
  3.459421   0.365927
  3.462877   0.351506
  3.466334   0.337832
  3.469790   0.325281
  3.473247   0.313903
  3.476703   0.303544
  3.480160   0.293961
  3.483616   0.284944
  3.487073   0.276376
  3.490530   0.268248
  3.493986   0.260607
  3.497442   0.253473
  3.500899   0.246779
  3.504356   0.240332
  3.507812   0.233842
  3.511269   0.226987
  3.514725   0.219495
  3.518182   0.211233
  3.521638   0.202226
  3.525095   0.192643
  3.528552   0.182729
  3.532008   0.172748
  3.535465   0.162931
  3.538921   0.153463
  3.542377   0.144479
  3.545834   0.136069
  3.549291   0.128290
  3.552747   0.121169
  3.556204   0.114705
  3.559660   0.108888
  3.563117   0.103695
   3.56657    0.09911
   3.57003    0.09510
   3.57349    0.09167
   3.57694    0.08880
   3.58040    0.08648
   3.58386    0.08471
   3.58731    0.08349
   3.59077    0.08281
   3.59423    0.08268
   3.59768    0.08311
   3.60114    0.08410
   3.60459    0.08565
   3.60805    0.08774
   3.61151    0.09037
   3.61496    0.09346
   3.61842    0.09692
  3.621878   0.100615
  3.625335   0.104349
  3.628791   0.107872
  3.632248   0.110892
  3.635704   0.113093
  3.639161   0.114180
  3.642617   0.113925
  3.646074   0.112226
  3.649530   0.109139
  3.652987   0.104866
   3.65644    0.09971
   3.65990    0.09402
   3.66336    0.08811
   3.66681    0.08224
   3.67027    0.07661
   3.67373    0.07133
   3.67718    0.06647
   3.68064    0.06204
   3.68410    0.05804
   3.68755    0.05444
   3.69101    0.05122
   3.69447    0.04835
   3.69792    0.04577
   3.70138    0.04347
   3.70483    0.04142
   3.70829    0.03958
   3.71175    0.03793
   3.71520    0.03645
   3.71866    0.03512
   3.72212    0.03394
   3.72557    0.03287
   3.72903    0.03191
   3.73249    0.03106
   3.73594    0.03029
   3.73940    0.02961
   3.74286    0.02901
   3.74631    0.02848
   3.74977    0.02802
   3.75323    0.02762
   3.75668    0.02729
   3.76014    0.02701
   3.76360    0.02679
   3.76705    0.02663
   3.77051    0.02652
   3.77397    0.02647
   3.77742    0.02648
   3.78088    0.02654
   3.78434    0.02666
   3.78779    0.02685
   3.79125    0.02709
   3.79470    0.02741
   3.79816    0.02779
   3.80162    0.02826
   3.80507    0.02880
   3.80853    0.02944
   3.81199    0.03017
   3.81544    0.03101
   3.81890    0.03198
   3.82236    0.03307
   3.82581    0.03431
   3.82927    0.03572
   3.83273    0.03731
   3.83618    0.03911
   3.83964    0.04114
   3.84310    0.04343
   3.84655    0.04602
   3.85001    0.04894
   3.85347    0.05222
   3.85692    0.05589
   3.86038    0.06001
   3.86384    0.06458
   3.86729    0.06964
   3.87075    0.07519
   3.87421    0.08124
   3.87766    0.08774
   3.88112    0.09466
  3.884575   0.101902
  3.888031   0.109312
  3.891488   0.116679
  3.894944   0.123725
  3.898401   0.130132
  3.901857   0.135582
  3.905314   0.139812
  3.908770   0.142645
  3.912227   0.144001
  3.915684   0.143868
  3.919140   0.142278
  3.922596   0.139293
  3.926053   0.135011
  3.929510   0.129580
  3.932966   0.123203
  3.936423   0.116132
  3.939879   0.108641
  3.943336   0.101007
   3.94679    0.09347
   3.95025    0.08624
   3.95371    0.07944
   3.95716    0.07316
   3.96062    0.06743
   3.96408    0.06226
   3.96753    0.05763
   3.97099    0.05351
   3.97444    0.04984
   3.97790    0.04660
   3.98136    0.04373
   3.98481    0.04119
   3.98827    0.03896
   3.99173    0.03700
   3.99518    0.03528
   3.99864    0.03379
   4.00210    0.03249
   4.00555    0.03138
   4.00901    0.03043
   4.01247    0.02966
   4.01592    0.02903
   4.01938    0.02856
   4.02284    0.02823
   4.02629    0.02805
   4.02975    0.02801
   4.03321    0.02813
   4.03666    0.02841
   4.04012    0.02885
   4.04358    0.02945
   4.04703    0.03023
   4.05049    0.03118
   4.05395    0.03229
   4.05740    0.03354
   4.06086    0.03488
   4.06431    0.03626
   4.06777    0.03758
   4.07123    0.03875
   4.07468    0.03963
   4.07814    0.04013
   4.08160    0.04016
   4.08505    0.03972
   4.08851    0.03884
   4.09197    0.03760
   4.09542    0.03613
   4.09888    0.03453
   4.10234    0.03291
   4.10579    0.03135
   4.10925    0.02991
   4.11271    0.02861
   4.11616    0.02747
   4.11962    0.02651
   4.12308    0.02571
   4.12653    0.02508
   4.12999    0.02461
   4.13345    0.02430
   4.13690    0.02414
   4.14036    0.02413
   4.14382    0.02428
   4.14727    0.02457
   4.15073    0.02503
   4.15418    0.02565
   4.15764    0.02645
   4.16110    0.02744
   4.16455    0.02864
   4.16801    0.03006
   4.17147    0.03173
   4.17492    0.03366
   4.17838    0.03587
   4.18184    0.03836
   4.18529    0.04115
   4.18875    0.04419
   4.19221    0.04746
   4.19566    0.05087
   4.19912    0.05431
   4.20258    0.05762
   4.20603    0.06062
   4.20949    0.06311
   4.21295    0.06493
   4.21640    0.06591
   4.21986    0.06595
   4.22332    0.06502
   4.22677    0.06317
   4.23023    0.06054
   4.23369    0.05731
   4.23714    0.05369
   4.24060    0.04991
   4.24405    0.04612
   4.24751    0.04246
   4.25097    0.03903
   4.25442    0.03586
   4.25788    0.03297
   4.26134    0.03037
   4.26479    0.02803
   4.26825    0.02594
   4.27171    0.02408
   4.27516    0.02242
   4.27862    0.02094
   4.28208    0.01962
   4.28553    0.01844
   4.28899    0.01739
   4.29245    0.01644
   4.29590    0.01559
   4.29936    0.01483
   4.30282    0.01414
   4.30627    0.01351
   4.30973    0.01295
   4.31319    0.01244
   4.31664    0.01198
   4.32010    0.01156
   4.32355    0.01118
   4.32701    0.01084
   4.33047    0.01053
   4.33392    0.01025
    4.3374     0.0100
    4.3408     0.0098
    4.3443     0.0096
    4.3478     0.0094
    4.3512     0.0092
    4.3547     0.0091
    4.3581     0.0090
    4.3616     0.0089
    4.3650     0.0088
    4.3685     0.0088
    4.3719     0.0088
    4.3754     0.0088
    4.3789     0.0088
    4.3823     0.0088
    4.3858     0.0089
    4.3892     0.0090
    4.3927     0.0091
    4.3961     0.0093
    4.3996     0.0095
    4.4031     0.0097
   4.40651    0.01004
   4.40997    0.01038
   4.41342    0.01078
   4.41688    0.01125
   4.42034    0.01178
   4.42379    0.01240
   4.42725    0.01309
   4.43071    0.01386
   4.43416    0.01472
   4.43762    0.01565
   4.44108    0.01663
   4.44453    0.01764
   4.44799    0.01866
   4.45145    0.01962
   4.45490    0.02050
   4.45836    0.02125
   4.46182    0.02184
   4.46527    0.02226
   4.46873    0.02248
   4.47219    0.02252
   4.47564    0.02236
   4.47910    0.02202
   4.48256    0.02149
   4.48601    0.02079
   4.48947    0.01994
   4.49293    0.01896
   4.49638    0.01790
   4.49984    0.01679
   4.50329    0.01567
   4.50675    0.01459
   4.51021    0.01355
   4.51366    0.01258
   4.51712    0.01170
   4.52058    0.01089
   4.52403    0.01016
    4.5275     0.0095
    4.5309     0.0089
    4.5344     0.0084
    4.5379     0.0079
    4.5413     0.0075
    4.5448     0.0071
    4.5482     0.0067
    4.5517     0.0064
    4.5551     0.0061
    4.5586     0.0059
    4.5621     0.0056
    4.5655     0.0054
    4.5690     0.0052
    4.5724     0.0050
    4.5759     0.0049
    4.5793     0.0047
  4.583     0.4577E-2
  4.586     0.4443E-2
  4.590     0.4319E-2
  4.593     0.4202E-2
  4.597     0.4093E-2
  4.600     0.3991E-2
  4.604     0.3895E-2
  4.607     0.3805E-2
  4.610     0.3720E-2
  4.614     0.3640E-2
  4.617     0.3564E-2
  4.621     0.3492E-2
  4.624     0.3423E-2
  4.628     0.3359E-2
  4.631     0.3297E-2
  4.635     0.3238E-2
  4.638     0.3181E-2
  4.642     0.3128E-2
  4.645     0.3076E-2
  4.648     0.3027E-2
  4.652     0.2979E-2
  4.655     0.2934E-2
  4.659     0.2890E-2
  4.662     0.2848E-2
  4.666     0.2808E-2
  4.669     0.2769E-2
  4.673     0.2731E-2
  4.676     0.2695E-2
  4.680     0.2660E-2
  4.683     0.2626E-2
  4.686     0.2593E-2
  4.690     0.2561E-2
  4.693     0.2530E-2
  4.697     0.2500E-2
  4.700     0.2471E-2
  4.704     0.2442E-2
  4.707     0.2415E-2
  4.711     0.2388E-2
  4.714     0.2362E-2
  4.718     0.2337E-2
  4.721     0.2312E-2
  4.725     0.2288E-2
  4.728     0.2265E-2
  4.731     0.2242E-2
  4.735     0.2220E-2
  4.738     0.2198E-2
  4.742     0.2176E-2
  4.745     0.2156E-2
  4.749     0.2135E-2
  4.752     0.2115E-2
  4.756     0.2096E-2
  4.759     0.2077E-2
  4.763     0.2058E-2
  4.766     0.2040E-2
  4.769     0.2022E-2
  4.773     0.2004E-2
  4.776     0.1987E-2
  4.780     0.1970E-2
  4.783     0.1954E-2
  4.787     0.1938E-2
  4.790     0.1922E-2
  4.794     0.1906E-2
  4.797     0.1891E-2
  4.801     0.1875E-2
  4.804     0.1861E-2
  4.807     0.1846E-2
  4.811     0.1832E-2
  4.814     0.1818E-2
  4.818     0.1804E-2
  4.821     0.1790E-2
  4.825     0.1777E-2
  4.828     0.1764E-2
  4.832     0.1751E-2
  4.835     0.1738E-2
  4.839     0.1725E-2
  4.842     0.1713E-2
  4.845     0.1700E-2
  4.849     0.1688E-2
  4.852     0.1677E-2
  4.856     0.1665E-2
  4.859     0.1653E-2
  4.863     0.1642E-2
  4.866     0.1631E-2
  4.870     0.1620E-2
  4.873     0.1609E-2
  4.877     0.1598E-2
  4.880     0.1588E-2
  4.884     0.1577E-2
  4.887     0.1567E-2
  4.890     0.1557E-2
  4.894     0.1547E-2
  4.897     0.1537E-2
  4.901     0.1527E-2
  4.904     0.1517E-2
  4.908     0.1508E-2
  4.911     0.1498E-2
  4.915     0.1489E-2
  4.918     0.1480E-2
  4.922     0.1471E-2
  4.925     0.1462E-2
  4.928     0.1453E-2
  4.932     0.1444E-2
  4.935     0.1435E-2
  4.939     0.1427E-2
  4.942     0.1418E-2
  4.946     0.1410E-2
  4.949     0.1401E-2
  4.953     0.1393E-2
  4.956     0.1385E-2
  4.960     0.1377E-2
  4.963     0.1369E-2
  4.966     0.1361E-2
  4.970     0.1354E-2
  4.973     0.1346E-2
  4.977     0.1338E-2
  4.980     0.1331E-2
  4.984     0.1323E-2
# 
# 05/03/2019 at 12:55 YPP @ login2.stampede2.tacc.utexas.edu [start]
# 05/03/2019 at 12:55                                        [end]
#  
# Timing   [Min/Max/Average]: 03s/03s/03s
#
# .-Input file : amp.in
# | excitons                     # [R] Excitons
# | amplitude                    # [R] Amplitude
# | BoseTemp=  0.02585     eV    # Bosonic Temperature
# | States= "1 - 10"             # Index of the BS state(s)
# | #DipWeight                   #  Weight the contribution to the exciton WFs with the dipoles
# | Degen_Step=0.1000E-4   eV    # Maximum energy separation of two degenerate states
