#                                                           
#  ____  ____     _       ____    ____  ______      ___     
# |_  _||_  _|   / \     |_   \  /   _||_   _ \   ."   `.   
#   \ \  / /    / _ \      |   \/   |    | |_) | /  .-.  \  
#    \ \/ /    / ___ \     | |\  /| |    |  __". | |   | |  
#    _|  |_  _/ /   \ \_  _| |_\/_| |_  _| |__) |\  `-"  /  
#   |______||____| |____||_____||_____||_______/  `.___."   
#                                                           
#                                                           
#                                                           
#              GPL Version 4.1.4 Revision 76                
#                        MPI Build                          
#                http://www.yambo-code.org                  
#
# BSK|Identifier              :5641
#    |Dimension               :11943
#    |Bands                   :121 - 172
#    |Exchange           [res]: yes
#    |Correlation        [res]: yes
#    |Kernel`s coupling       : no
#    |Exchange           [cpl]: no
#    |Correlation        [cpl]: no
#    |W interaction is bare   : no
#    |ALDA kernel in R-space  : no
#    |RL vectors    [exchange]:31669
#    |RL vectors [correlation]:387
#    |E/h energy range    [ev]:-1.000000 - -1.000000
#    |Coupling range     [o/o]: 100.0000 -  100.0000
#  W |Interaction is diagonal : no
#    |Matrix size             :2845
#    |Bands                   :1 - 570
#    |e/h energy range    [ev]:-1.000000 - -1.000000
#    |Poles              [o/o]: 100.0000
#    |RL vectors in the sum   :31669
#    |[r,Vnl] included        : yes
#    |Field direction         :-.8660E-5 0.5000E-5  0.000000
#    |Coulomb Cutoff          :box z
#    |xc-Kernel               :none
# RIM|RL components      [col]:0
#    |Random points      [col]:0
#
# Electron-Hole pairs that contributes to Excitonic State 8 more than 5%
#
#  E    [eV]  Amplitude
#  
  1.516     0.1208E-2
  1.519     0.1214E-2
  1.523     0.1221E-2
  1.526     0.1227E-2
  1.529     0.1234E-2
  1.532     0.1240E-2
  1.536     0.1247E-2
  1.539     0.1253E-2
  1.542     0.1260E-2
  1.546     0.1267E-2
  1.549     0.1273E-2
  1.552     0.1280E-2
  1.555     0.1287E-2
  1.559     0.1294E-2
  1.562     0.1301E-2
  1.565     0.1309E-2
  1.568     0.1316E-2
  1.572     0.1323E-2
  1.575     0.1331E-2
  1.578     0.1338E-2
  1.582     0.1346E-2
  1.585     0.1354E-2
  1.588     0.1361E-2
  1.591     0.1369E-2
  1.595     0.1377E-2
  1.598     0.1385E-2
  1.601     0.1394E-2
  1.604     0.1402E-2
  1.608     0.1410E-2
  1.611     0.1419E-2
  1.614     0.1428E-2
  1.617     0.1436E-2
  1.621     0.1445E-2
  1.624     0.1454E-2
  1.627     0.1463E-2
  1.631     0.1473E-2
  1.634     0.1482E-2
  1.637     0.1491E-2
  1.640     0.1501E-2
  1.644     0.1511E-2
  1.647     0.1521E-2
  1.650     0.1531E-2
  1.653     0.1541E-2
  1.657     0.1552E-2
  1.660     0.1562E-2
  1.663     0.1573E-2
  1.667     0.1584E-2
  1.670     0.1595E-2
  1.673     0.1606E-2
  1.676     0.1618E-2
  1.680     0.1629E-2
  1.683     0.1641E-2
  1.686     0.1653E-2
  1.689     0.1665E-2
  1.693     0.1678E-2
  1.696     0.1690E-2
    1.6992     0.0017
    1.7025     0.0017
    1.7058     0.0017
    1.7090     0.0017
    1.7123     0.0018
    1.7156     0.0018
    1.7188     0.0018
    1.7221     0.0018
    1.7254     0.0018
    1.7286     0.0018
    1.7319     0.0018
    1.7352     0.0019
    1.7384     0.0019
    1.7417     0.0019
    1.7450     0.0019
    1.7482     0.0019
    1.7515     0.0020
    1.7548     0.0020
    1.7581     0.0020
    1.7613     0.0020
    1.7646     0.0020
    1.7679     0.0020
    1.7711     0.0021
    1.7744     0.0021
    1.7777     0.0021
    1.7809     0.0021
    1.7842     0.0022
    1.7875     0.0022
    1.7907     0.0022
    1.7940     0.0022
    1.7973     0.0023
    1.8005     0.0023
    1.8038     0.0023
    1.8071     0.0023
    1.8104     0.0024
    1.8136     0.0024
    1.8169     0.0024
    1.8202     0.0025
    1.8234     0.0025
    1.8267     0.0025
    1.8300     0.0026
    1.8332     0.0026
    1.8365     0.0027
    1.8398     0.0027
    1.8430     0.0028
    1.8463     0.0028
    1.8496     0.0028
    1.8529     0.0029
    1.8561     0.0030
    1.8594     0.0030
    1.8627     0.0031
    1.8659     0.0031
    1.8692     0.0032
    1.8725     0.0033
    1.8757     0.0033
    1.8790     0.0034
    1.8823     0.0035
    1.8855     0.0036
    1.8888     0.0037
    1.8921     0.0038
    1.8953     0.0039
    1.8986     0.0040
    1.9019     0.0041
    1.9052     0.0042
    1.9084     0.0044
    1.9117     0.0045
    1.9150     0.0047
    1.9182     0.0048
    1.9215     0.0050
    1.9248     0.0052
    1.9280     0.0054
    1.9313     0.0057
    1.9346     0.0059
    1.9378     0.0062
    1.9411     0.0065
    1.9444     0.0068
    1.9476     0.0072
    1.9509     0.0076
    1.9542     0.0081
    1.9575     0.0086
    1.9607     0.0091
    1.9640     0.0097
   1.96726    0.01045
   1.97053    0.01123
   1.97380    0.01210
   1.97707    0.01309
   1.98034    0.01418
   1.98361    0.01540
   1.98688    0.01676
   1.99014    0.01824
   1.99341    0.01984
   1.99668    0.02155
   1.99995    0.02331
   2.00322    0.02508
   2.00649    0.02678
   2.00976    0.02832
   2.01303    0.02963
   2.01630    0.03063
   2.01956    0.03130
   2.02283    0.03165
   2.02610    0.03170
   2.02937    0.03151
   2.03264    0.03111
   2.03591    0.03050
   2.03918    0.02969
   2.04245    0.02868
   2.04572    0.02747
   2.04898    0.02608
   2.05225    0.02456
   2.05552    0.02297
   2.05879    0.02136
   2.06206    0.01978
   2.06533    0.01829
   2.06860    0.01690
   2.07187    0.01562
   2.07514    0.01446
   2.07840    0.01341
   2.08167    0.01248
   2.08494    0.01164
   2.08821    0.01090
   2.09148    0.01024
    2.0947     0.0097
    2.0980     0.0091
    2.1013     0.0087
    2.1046     0.0082
    2.1078     0.0079
    2.1111     0.0075
    2.1144     0.0072
    2.1176     0.0070
    2.1209     0.0067
    2.1242     0.0065
    2.1274     0.0063
    2.1307     0.0061
    2.1340     0.0059
    2.1372     0.0058
    2.1405     0.0057
    2.1438     0.0055
    2.1471     0.0054
    2.1503     0.0053
    2.1536     0.0052
    2.1569     0.0051
    2.1601     0.0051
    2.1634     0.0050
    2.1667     0.0049
    2.1699     0.0049
    2.1732     0.0048
    2.1765     0.0048
    2.1797     0.0047
    2.1830     0.0047
    2.1863     0.0047
    2.1895     0.0046
    2.1928     0.0046
    2.1961     0.0046
    2.1994     0.0046
    2.2026     0.0045
    2.2059     0.0045
    2.2092     0.0045
    2.2124     0.0045
    2.2157     0.0045
    2.2190     0.0045
    2.2222     0.0045
    2.2255     0.0045
    2.2288     0.0045
    2.2320     0.0045
    2.2353     0.0045
    2.2386     0.0045
    2.2418     0.0045
    2.2451     0.0045
    2.2484     0.0045
    2.2517     0.0045
    2.2549     0.0045
    2.2582     0.0045
    2.2615     0.0045
    2.2647     0.0046
    2.2680     0.0046
    2.2713     0.0046
    2.2745     0.0046
    2.2778     0.0046
    2.2811     0.0047
    2.2843     0.0047
    2.2876     0.0047
    2.2909     0.0047
    2.2942     0.0047
    2.2974     0.0048
    2.3007     0.0048
    2.3040     0.0048
    2.3072     0.0048
    2.3105     0.0049
    2.3138     0.0049
    2.3170     0.0049
    2.3203     0.0050
    2.3236     0.0050
    2.3268     0.0050
    2.3301     0.0051
    2.3334     0.0051
    2.3366     0.0051
    2.3399     0.0052
    2.3432     0.0052
    2.3465     0.0052
    2.3497     0.0053
    2.3530     0.0053
    2.3563     0.0053
    2.3595     0.0054
    2.3628     0.0054
    2.3661     0.0055
    2.3693     0.0055
    2.3726     0.0056
    2.3759     0.0056
    2.3791     0.0056
    2.3824     0.0057
    2.3857     0.0057
    2.3889     0.0058
    2.3922     0.0058
    2.3955     0.0059
    2.3988     0.0059
    2.4020     0.0060
    2.4053     0.0060
    2.4086     0.0061
    2.4118     0.0062
    2.4151     0.0062
    2.4184     0.0063
    2.4216     0.0063
    2.4249     0.0064
    2.4282     0.0065
    2.4314     0.0065
    2.4347     0.0066
    2.4380     0.0066
    2.4413     0.0067
    2.4445     0.0068
    2.4478     0.0068
    2.4511     0.0069
    2.4543     0.0070
    2.4576     0.0071
    2.4609     0.0071
    2.4641     0.0072
    2.4674     0.0073
    2.4707     0.0074
    2.4739     0.0074
    2.4772     0.0075
    2.4805     0.0076
    2.4837     0.0077
    2.4870     0.0078
    2.4903     0.0079
    2.4936     0.0080
    2.4968     0.0080
    2.5001     0.0081
    2.5034     0.0082
    2.5066     0.0083
    2.5099     0.0084
    2.5132     0.0085
    2.5164     0.0086
    2.5197     0.0087
    2.5230     0.0088
    2.5262     0.0090
    2.5295     0.0091
    2.5328     0.0092
    2.5360     0.0093
    2.5393     0.0094
    2.5426     0.0095
    2.5459     0.0097
    2.5491     0.0098
    2.5524     0.0099
   2.55566    0.01006
   2.55893    0.01020
   2.56220    0.01034
   2.56547    0.01048
   2.56874    0.01062
   2.57201    0.01077
   2.57528    0.01092
   2.57855    0.01108
   2.58181    0.01124
   2.58508    0.01140
   2.58835    0.01157
   2.59162    0.01174
   2.59489    0.01192
   2.59816    0.01210
   2.60143    0.01229
   2.60470    0.01247
   2.60797    0.01267
   2.61123    0.01287
   2.61450    0.01307
   2.61777    0.01328
   2.62104    0.01350
   2.62431    0.01372
   2.62758    0.01395
   2.63085    0.01418
   2.63412    0.01442
   2.63739    0.01467
   2.64065    0.01493
   2.64392    0.01519
   2.64719    0.01546
   2.65046    0.01573
   2.65373    0.01602
   2.65700    0.01632
   2.66027    0.01662
   2.66354    0.01693
   2.66681    0.01726
   2.67007    0.01759
   2.67334    0.01793
   2.67661    0.01829
   2.67988    0.01866
   2.68315    0.01904
   2.68642    0.01943
   2.68969    0.01984
   2.69296    0.02026
   2.69623    0.02070
   2.69949    0.02115
   2.70276    0.02162
   2.70603    0.02211
   2.70930    0.02262
   2.71257    0.02315
   2.71584    0.02370
   2.71911    0.02427
   2.72238    0.02487
   2.72565    0.02549
   2.72891    0.02614
   2.73218    0.02682
   2.73545    0.02753
   2.73872    0.02827
   2.74199    0.02905
   2.74526    0.02986
   2.74853    0.03072
   2.75180    0.03162
   2.75507    0.03257
   2.75833    0.03357
   2.76160    0.03463
   2.76487    0.03574
   2.76814    0.03692
   2.77141    0.03817
   2.77468    0.03950
   2.77795    0.04092
   2.78122    0.04243
   2.78449    0.04404
   2.78775    0.04576
   2.79102    0.04761
   2.79429    0.04960
   2.79756    0.05175
   2.80083    0.05406
   2.80410    0.05657
   2.80737    0.05929
   2.81064    0.06226
   2.81391    0.06549
   2.81717    0.06903
   2.82044    0.07292
   2.82371    0.07719
   2.82698    0.08190
   2.83025    0.08710
   2.83352    0.09284
   2.83679    0.09917
  2.840056   0.106162
  2.843326   0.113840
  2.846595   0.122221
  2.849863   0.131282
  2.853132   0.140939
  2.856401   0.151023
  2.859670   0.161262
  2.862939   0.171272
  2.866208   0.180585
  2.869477   0.188698
  2.872746   0.195175
  2.876014   0.199753
  2.879283   0.202417
  2.882552   0.203419
  2.885821   0.203223
  2.889090   0.202401
  2.892359   0.201533
  2.895628   0.201136
  2.898897   0.201625
  2.902165   0.203319
  2.905435   0.206448
  2.908704   0.211181
  2.911972   0.217642
  2.915241   0.225926
  2.918510   0.236096
  2.921779   0.248183
  2.925048   0.262167
  2.928317   0.277959
  2.931586   0.295369
  2.934855   0.314085
  2.938123   0.333653
  2.941392   0.353485
  2.944661   0.372875
  2.947930   0.391042
  2.951199   0.407204
  2.954468   0.420645
  2.957737   0.430800
  2.961006   0.437343
  2.964274   0.440237
  2.967543   0.439763
  2.970813   0.436511
  2.974081   0.431327
  2.977350   0.425215
  2.980619   0.419221
  2.983888   0.414319
  2.987157   0.411328
  2.990426   0.410873
  2.993695   0.413382
  2.996964   0.419093
  3.000232   0.428074
  3.003501   0.440214
  3.006770   0.455219
  3.010039   0.472603
  3.013308   0.491694
  3.016577   0.511695
  3.019846   0.531800
  3.023115   0.551367
  3.026384   0.570111
  3.029652   0.588210
  3.032922   0.606308
  3.036190   0.625365
  3.039459   0.646452
  3.042728   0.670513
  3.045997   0.698194
  3.049266   0.729703
  3.052535   0.764744
  3.055804   0.802452
  3.059072   0.841395
  3.062341   0.879666
  3.065610   0.915091
  3.068879   0.945590
  3.072148   0.969606
  3.075417   0.986436
  3.078686   0.996279
  3.081955   1.000000
  3.085224   0.998689
  3.088493   0.993271
  3.091761   0.984323
  3.095030   0.972136
  3.098299   0.956932
  3.101568   0.939022
  3.104837   0.918825
  3.108106   0.896699
  3.111375   0.872746
  3.114644   0.846713
  3.117913   0.818077
  3.121181   0.786331
  3.124450   0.751285
  3.127719   0.713293
  3.130988   0.673242
  3.134257   0.632389
  3.137526   0.592072
  3.140795   0.553495
  3.144064   0.517560
  3.147333   0.484845
  3.150602   0.455602
  3.153870   0.429831
  3.157139   0.407330
  3.160408   0.387763
  3.163677   0.370714
  3.166946   0.355747
  3.170215   0.342456
  3.173484   0.330509
  3.176753   0.319652
  3.180022   0.309686
  3.183290   0.300436
  3.186559   0.291709
  3.189828   0.283297
  3.193097   0.275001
  3.196366   0.266687
  3.199635   0.258319
  3.202904   0.249977
  3.206173   0.241818
  3.209442   0.234032
  3.212711   0.226785
  3.215979   0.220184
  3.219248   0.214269
  3.222517   0.209037
  3.225786   0.204462
  3.229055   0.200529
  3.232324   0.197241
  3.235593   0.194611
  3.238862   0.192638
  3.242131   0.191273
  3.245399   0.190399
  3.248668   0.189823
  3.251937   0.189294
  3.255206   0.188544
  3.258475   0.187346
  3.261744   0.185571
  3.265013   0.183208
  3.268282   0.180358
  3.271551   0.177188
  3.274820   0.173875
  3.278088   0.170572
  3.281357   0.167391
  3.284626   0.164418
  3.287895   0.161726
  3.291164   0.159388
  3.294433   0.157465
  3.297702   0.155983
  3.300971   0.154912
  3.304240   0.154143
  3.307509   0.153482
  3.310777   0.152673
  3.314046   0.151437
  3.317315   0.149535
  3.320584   0.146819
  3.323853   0.143274
  3.327122   0.139014
  3.330391   0.134245
  3.333660   0.129201
  3.336929   0.124100
  3.340197   0.119104
  3.343466   0.114306
  3.346735   0.109751
  3.350004   0.105446
  3.353273   0.101392
   3.35654    0.09759
   3.35981    0.09407
   3.36308    0.09085
   3.36635    0.08797
   3.36962    0.08544
   3.37289    0.08331
   3.37616    0.08157
   3.37942    0.08023
   3.38269    0.07931
   3.38596    0.07879
   3.38923    0.07869
   3.39250    0.07901
   3.39577    0.07976
   3.39904    0.08097
   3.40231    0.08264
   3.40558    0.08481
   3.40884    0.08752
   3.41211    0.09079
   3.41538    0.09468
   3.41865    0.09921
  3.421920   0.104420
  3.425189   0.110329
  3.428458   0.116934
  3.431727   0.124202
  3.434996   0.132059
  3.438264   0.140379
  3.441533   0.148985
  3.444802   0.157641
  3.448071   0.166072
  3.451340   0.174003
  3.454609   0.181203
  3.457878   0.187517
  3.461147   0.192885
  3.464415   0.197292
  3.467684   0.200710
  3.470953   0.203028
  3.474222   0.204034
  3.477491   0.203459
  3.480760   0.201071
  3.484029   0.196787
  3.487298   0.190740
  3.490566   0.183279
  3.493835   0.174897
  3.497104   0.166132
  3.500373   0.157478
  3.503642   0.149325
  3.506911   0.141939
  3.510180   0.135466
  3.513449   0.129945
  3.516717   0.125328
  3.519986   0.121488
  3.523256   0.118240
  3.526525   0.115352
  3.529794   0.112578
  3.533062   0.109690
  3.536331   0.106523
  3.539600   0.103002
   3.54287    0.09915
   3.54614    0.09508
   3.54941    0.09093
   3.55268    0.08688
   3.55594    0.08306
   3.55921    0.07958
   3.56248    0.07652
   3.56575    0.07392
   3.56902    0.07181
   3.57229    0.07020
   3.57556    0.06909
   3.57883    0.06849
   3.58210    0.06838
   3.58536    0.06877
   3.58863    0.06966
   3.59190    0.07102
   3.59517    0.07284
   3.59844    0.07505
   3.60171    0.07759
   3.60498    0.08032
   3.60825    0.08309
   3.61152    0.08569
   3.61478    0.08792
   3.61805    0.08958
   3.62132    0.09054
   3.62459    0.09079
   3.62786    0.09036
   3.63113    0.08936
   3.63440    0.08795
   3.63767    0.08623
   3.64094    0.08430
   3.64420    0.08223
   3.64747    0.08007
   3.65074    0.07789
   3.65401    0.07576
   3.65728    0.07376
   3.66055    0.07194
   3.66382    0.07034
   3.66709    0.06899
   3.67036    0.06786
   3.67362    0.06695
   3.67689    0.06623
   3.68016    0.06569
   3.68343    0.06536
   3.68670    0.06524
   3.68997    0.06536
   3.69324    0.06570
   3.69651    0.06622
   3.69978    0.06684
   3.70304    0.06740
   3.70631    0.06773
   3.70958    0.06765
   3.71285    0.06701
   3.71612    0.06572
   3.71939    0.06377
   3.72266    0.06126
   3.72593    0.05832
   3.72920    0.05515
   3.73246    0.05189
   3.73573    0.04868
   3.73900    0.04561
   3.74227    0.04276
   3.74554    0.04015
   3.74881    0.03778
   3.75208    0.03567
   3.75535    0.03379
   3.75862    0.03212
   3.76188    0.03066
   3.76515    0.02939
   3.76842    0.02828
   3.77169    0.02732
   3.77496    0.02651
   3.77823    0.02584
   3.78150    0.02528
   3.78477    0.02485
   3.78804    0.02453
   3.79130    0.02432
   3.79457    0.02423
   3.79784    0.02426
   3.80111    0.02440
   3.80438    0.02467
   3.80765    0.02508
   3.81092    0.02562
   3.81419    0.02631
   3.81746    0.02716
   3.82072    0.02818
   3.82399    0.02936
   3.82726    0.03070
   3.83053    0.03219
   3.83380    0.03378
   3.83707    0.03542
   3.84034    0.03702
   3.84361    0.03846
   3.84688    0.03963
   3.85015    0.04039
   3.85341    0.04065
   3.85668    0.04037
   3.85995    0.03958
   3.86322    0.03837
   3.86649    0.03685
   3.86976    0.03515
   3.87303    0.03339
   3.87630    0.03167
   3.87957    0.03006
   3.88283    0.02860
   3.88610    0.02731
   3.88937    0.02620
   3.89264    0.02527
   3.89591    0.02452
   3.89918    0.02393
   3.90245    0.02348
   3.90572    0.02315
   3.90899    0.02293
   3.91225    0.02277
   3.91552    0.02265
   3.91879    0.02255
   3.92206    0.02243
   3.92533    0.02230
   3.92860    0.02214
   3.93187    0.02199
   3.93514    0.02186
   3.93841    0.02177
   3.94167    0.02174
   3.94494    0.02179
   3.94821    0.02191
   3.95148    0.02209
   3.95475    0.02233
   3.95802    0.02260
   3.96129    0.02287
   3.96456    0.02313
   3.96783    0.02336
   3.97109    0.02358
   3.97436    0.02381
   3.97763    0.02408
   3.98090    0.02442
   3.98417    0.02487
   3.98744    0.02545
   3.99071    0.02618
   3.99398    0.02705
   3.99725    0.02805
   4.00051    0.02913
   4.00378    0.03023
   4.00705    0.03126
   4.01032    0.03211
   4.01359    0.03267
   4.01686    0.03285
   4.02013    0.03260
   4.02340    0.03191
   4.02667    0.03083
   4.02993    0.02946
   4.03320    0.02790
   4.03647    0.02625
   4.03974    0.02459
   4.04301    0.02300
   4.04628    0.02150
   4.04955    0.02013
   4.05282    0.01888
   4.05609    0.01777
   4.05935    0.01678
   4.06262    0.01590
   4.06589    0.01513
   4.06916    0.01446
   4.07243    0.01387
   4.07570    0.01336
   4.07897    0.01293
   4.08224    0.01256
   4.08551    0.01225
   4.08877    0.01199
   4.09204    0.01179
   4.09531    0.01163
   4.09858    0.01152
   4.10185    0.01147
   4.10512    0.01145
   4.10839    0.01149
   4.11166    0.01157
   4.11493    0.01171
   4.11819    0.01190
   4.12146    0.01215
   4.12473    0.01246
   4.12800    0.01283
   4.13127    0.01329
   4.13454    0.01382
   4.13781    0.01443
   4.14108    0.01513
   4.14435    0.01592
   4.14761    0.01679
   4.15088    0.01772
   4.15415    0.01870
   4.15742    0.01968
   4.16069    0.02061
   4.16396    0.02143
   4.16723    0.02207
   4.17050    0.02248
   4.17377    0.02264
   4.17703    0.02254
   4.18030    0.02223
   4.18357    0.02176
   4.18684    0.02121
   4.19011    0.02064
   4.19338    0.02010
   4.19665    0.01966
   4.19992    0.01932
   4.20319    0.01912
   4.20645    0.01907
   4.20972    0.01916
   4.21299    0.01940
   4.21626    0.01977
   4.21953    0.02026
   4.22280    0.02083
   4.22607    0.02145
   4.22934    0.02207
   4.23261    0.02263
   4.23587    0.02309
   4.23914    0.02342
   4.24241    0.02362
   4.24568    0.02370
   4.24895    0.02370
   4.25222    0.02368
   4.25549    0.02369
   4.25876    0.02377
   4.26203    0.02394
   4.26529    0.02420
   4.26856    0.02452
   4.27183    0.02487
   4.27510    0.02516
   4.27837    0.02531
   4.28164    0.02526
   4.28491    0.02494
   4.28818    0.02433
   4.29145    0.02345
   4.29471    0.02234
   4.29798    0.02108
   4.30125    0.01974
   4.30452    0.01838
   4.30779    0.01705
   4.31106    0.01579
   4.31433    0.01463
   4.31760    0.01356
   4.32087    0.01259
   4.32413    0.01171
   4.32740    0.01092
   4.33067    0.01022
    4.3339     0.0096
    4.3372     0.0090
    4.3405     0.0085
    4.3437     0.0080
    4.3470     0.0076
    4.3503     0.0073
    4.3536     0.0069
    4.3568     0.0066
    4.3601     0.0063
    4.3634     0.0061
    4.3666     0.0058
    4.3699     0.0056
    4.3732     0.0054
    4.3764     0.0052
    4.3797     0.0051
    4.3830     0.0049
    4.3862     0.0047
    4.3895     0.0046
    4.3928     0.0045
  4.396     0.4362E-2
  4.399     0.4248E-2
  4.403     0.4142E-2
  4.406     0.4042E-2
  4.409     0.3947E-2
  4.412     0.3858E-2
  4.416     0.3773E-2
  4.419     0.3693E-2
  4.422     0.3617E-2
  4.425     0.3545E-2
  4.429     0.3476E-2
  4.432     0.3411E-2
  4.435     0.3348E-2
  4.439     0.3288E-2
  4.442     0.3231E-2
  4.445     0.3177E-2
  4.448     0.3124E-2
  4.452     0.3074E-2
  4.455     0.3026E-2
  4.458     0.2979E-2
  4.461     0.2935E-2
  4.465     0.2892E-2
  4.468     0.2850E-2
  4.471     0.2810E-2
  4.475     0.2772E-2
  4.478     0.2734E-2
  4.481     0.2698E-2
  4.484     0.2663E-2
  4.488     0.2630E-2
  4.491     0.2597E-2
  4.494     0.2565E-2
  4.497     0.2534E-2
  4.501     0.2504E-2
  4.504     0.2475E-2
  4.507     0.2447E-2
  4.510     0.2420E-2
  4.514     0.2393E-2
  4.517     0.2367E-2
  4.520     0.2342E-2
  4.524     0.2317E-2
  4.527     0.2293E-2
  4.530     0.2270E-2
  4.533     0.2247E-2
  4.537     0.2224E-2
  4.540     0.2203E-2
  4.543     0.2181E-2
  4.546     0.2161E-2
  4.550     0.2140E-2
  4.553     0.2120E-2
  4.556     0.2101E-2
  4.559     0.2082E-2
  4.563     0.2063E-2
  4.566     0.2045E-2
  4.569     0.2027E-2
  4.573     0.2009E-2
  4.576     0.1992E-2
  4.579     0.1975E-2
  4.582     0.1959E-2
  4.586     0.1943E-2
  4.589     0.1927E-2
  4.592     0.1911E-2
  4.595     0.1896E-2
  4.599     0.1881E-2
  4.602     0.1866E-2
  4.605     0.1851E-2
  4.609     0.1837E-2
  4.612     0.1823E-2
  4.615     0.1809E-2
  4.618     0.1795E-2
  4.622     0.1782E-2
  4.625     0.1769E-2
  4.628     0.1756E-2
  4.631     0.1743E-2
  4.635     0.1731E-2
  4.638     0.1718E-2
  4.641     0.1706E-2
  4.644     0.1694E-2
  4.648     0.1682E-2
  4.651     0.1671E-2
  4.654     0.1659E-2
  4.658     0.1648E-2
  4.661     0.1637E-2
  4.664     0.1626E-2
  4.667     0.1615E-2
  4.671     0.1604E-2
  4.674     0.1594E-2
  4.677     0.1583E-2
  4.680     0.1573E-2
  4.684     0.1563E-2
  4.687     0.1553E-2
  4.690     0.1543E-2
  4.694     0.1533E-2
  4.697     0.1523E-2
  4.700     0.1514E-2
  4.703     0.1505E-2
  4.707     0.1495E-2
  4.710     0.1486E-2
  4.713     0.1477E-2
  4.716     0.1468E-2
  4.720     0.1459E-2
  4.723     0.1451E-2
  4.726     0.1442E-2
  4.729     0.1434E-2
  4.733     0.1425E-2
  4.736     0.1417E-2
  4.739     0.1409E-2
  4.743     0.1400E-2
  4.746     0.1392E-2
  4.749     0.1384E-2
  4.752     0.1377E-2
  4.756     0.1369E-2
  4.759     0.1361E-2
  4.762     0.1353E-2
  4.765     0.1346E-2
  4.769     0.1338E-2
  4.772     0.1331E-2
  4.775     0.1324E-2
  4.779     0.1317E-2
  4.782     0.1309E-2
# 
# 05/03/2019 at 12:55 YPP @ login2.stampede2.tacc.utexas.edu [start]
# 05/03/2019 at 12:55                                        [end]
#  
# Timing   [Min/Max/Average]: 03s/03s/03s
#
# .-Input file : amp.in
# | excitons                     # [R] Excitons
# | amplitude                    # [R] Amplitude
# | BoseTemp=  0.02585     eV    # Bosonic Temperature
# | States= "1 - 10"             # Index of the BS state(s)
# | #DipWeight                   #  Weight the contribution to the exciton WFs with the dipoles
# | Degen_Step=0.1000E-4   eV    # Maximum energy separation of two degenerate states
