#                                                           
#  ____  ____     _       ____    ____  ______      ___     
# |_  _||_  _|   / \     |_   \  /   _||_   _ \   ."   `.   
#   \ \  / /    / _ \      |   \/   |    | |_) | /  .-.  \  
#    \ \/ /    / ___ \     | |\  /| |    |  __". | |   | |  
#    _|  |_  _/ /   \ \_  _| |_\/_| |_  _| |__) |\  `-"  /  
#   |______||____| |____||_____||_____||_______/  `.___."   
#                                                           
#                                                           
#                                                           
#              GPL Version 4.1.4 Revision 76                
#                        MPI Build                          
#                http://www.yambo-code.org                  
#
# BSK|Identifier              :5641
#    |Dimension               :11943
#    |Bands                   :121 - 172
#    |Exchange           [res]: yes
#    |Correlation        [res]: yes
#    |Kernel`s coupling       : no
#    |Exchange           [cpl]: no
#    |Correlation        [cpl]: no
#    |W interaction is bare   : no
#    |ALDA kernel in R-space  : no
#    |RL vectors    [exchange]:31669
#    |RL vectors [correlation]:387
#    |E/h energy range    [ev]:-1.000000 - -1.000000
#    |Coupling range     [o/o]: 100.0000 -  100.0000
#  W |Interaction is diagonal : no
#    |Matrix size             :2845
#    |Bands                   :1 - 570
#    |e/h energy range    [ev]:-1.000000 - -1.000000
#    |Poles              [o/o]: 100.0000
#    |RL vectors in the sum   :31669
#    |[r,Vnl] included        : yes
#    |Field direction         :-.8660E-5 0.5000E-5  0.000000
#    |Coulomb Cutoff          :box z
#    |xc-Kernel               :none
# RIM|RL components      [col]:0
#    |Random points      [col]:0
#
# Electron-Hole pairs that contributes to Excitonic State 1 more than 5%
#
#  E    [eV]  Amplitude
#  
    1.4315     0.0050
    1.4350     0.0051
    1.4385     0.0052
    1.4420     0.0052
    1.4454     0.0053
    1.4489     0.0054
    1.4524     0.0055
    1.4559     0.0055
    1.4594     0.0056
    1.4629     0.0057
    1.4664     0.0058
    1.4699     0.0059
    1.4734     0.0059
    1.4769     0.0060
    1.4804     0.0061
    1.4839     0.0062
    1.4874     0.0063
    1.4909     0.0064
    1.4944     0.0065
    1.4979     0.0066
    1.5014     0.0067
    1.5048     0.0068
    1.5083     0.0069
    1.5118     0.0070
    1.5153     0.0071
    1.5188     0.0073
    1.5223     0.0074
    1.5258     0.0075
    1.5293     0.0076
    1.5328     0.0078
    1.5363     0.0079
    1.5398     0.0080
    1.5433     0.0082
    1.5468     0.0083
    1.5503     0.0085
    1.5538     0.0086
    1.5573     0.0088
    1.5608     0.0089
    1.5643     0.0091
    1.5677     0.0092
    1.5712     0.0094
    1.5747     0.0096
    1.5782     0.0098
    1.5817     0.0100
   1.58522    0.01016
   1.58871    0.01035
   1.59220    0.01056
   1.59570    0.01077
   1.59919    0.01098
   1.60269    0.01120
   1.60618    0.01143
   1.60968    0.01167
   1.61317    0.01191
   1.61666    0.01217
   1.62016    0.01242
   1.62365    0.01269
   1.62715    0.01297
   1.63064    0.01325
   1.63413    0.01355
   1.63763    0.01385
   1.64112    0.01417
   1.64462    0.01450
   1.64811    0.01483
   1.65161    0.01518
   1.65510    0.01555
   1.65859    0.01592
   1.66209    0.01631
   1.66558    0.01671
   1.66908    0.01713
   1.67257    0.01757
   1.67607    0.01802
   1.67956    0.01848
   1.68305    0.01897
   1.68655    0.01948
   1.69004    0.02000
   1.69354    0.02055
   1.69703    0.02112
   1.70052    0.02172
   1.70402    0.02234
   1.70751    0.02299
   1.71101    0.02366
   1.71450    0.02437
   1.71800    0.02510
   1.72149    0.02588
   1.72498    0.02668
   1.72848    0.02753
   1.73197    0.02841
   1.73547    0.02934
   1.73896    0.03032
   1.74246    0.03134
   1.74595    0.03242
   1.74944    0.03355
   1.75294    0.03474
   1.75643    0.03600
   1.75993    0.03732
   1.76342    0.03872
   1.76691    0.04020
   1.77041    0.04176
   1.77390    0.04342
   1.77740    0.04518
   1.78089    0.04704
   1.78439    0.04902
   1.78788    0.05112
   1.79137    0.05336
   1.79487    0.05575
   1.79836    0.05830
   1.80186    0.06103
   1.80535    0.06395
   1.80885    0.06708
   1.81234    0.07044
   1.81583    0.07405
   1.81933    0.07795
   1.82282    0.08215
   1.82632    0.08669
   1.82981    0.09161
   1.83330    0.09695
  1.836799   0.102750
  1.840293   0.109071
  1.843787   0.115973
  1.847281   0.123523
  1.850776   0.131803
  1.854270   0.140903
  1.857764   0.150928
  1.861258   0.161998
  1.864752   0.174252
  1.868247   0.187851
  1.871741   0.202975
  1.875235   0.219834
  1.878729   0.238667
  1.882223   0.259742
  1.885718   0.283362
  1.889212   0.309858
  1.892706   0.339583
  1.896200   0.372901
  1.899695   0.410164
  1.903189   0.451666
  1.906683   0.497583
  1.910177   0.547894
  1.913671   0.602263
  1.917166   0.659926
  1.920660   0.719577
  1.924154   0.779316
  1.927648   0.836709
  1.931142   0.889004
  1.934637   0.933449
  1.938131   0.967707
  1.941625   0.990155
  1.945119   1.000000
  1.948614   0.997166
  1.952108   0.982093
  1.955602   0.955592
  1.959096   0.918824
  1.962590   0.873378
  1.966085   0.821273
  1.969579   0.764834
  1.973073   0.706438
  1.976567   0.648243
  1.980062   0.591986
  1.983556   0.538898
  1.987050   0.489713
  1.990544   0.444772
  1.994038   0.404111
  1.997532   0.367569
  2.001027   0.334870
  2.004521   0.305679
  2.008015   0.279647
  2.011509   0.256428
  2.015003   0.235701
  2.018498   0.217173
  2.021992   0.200580
  2.025486   0.185690
  2.028980   0.172298
  2.032475   0.160226
  2.035969   0.149318
  2.039463   0.139436
  2.042957   0.130464
  2.046451   0.122298
  2.049946   0.114850
  2.053440   0.108041
  2.056934   0.101801
   2.06043    0.09607
   2.06392    0.09080
   2.06742    0.08594
   2.07091    0.08146
   2.07440    0.07731
   2.07790    0.07346
   2.08139    0.06988
   2.08489    0.06656
   2.08838    0.06347
   2.09188    0.06058
   2.09537    0.05788
   2.09886    0.05536
   2.10236    0.05299
   2.10585    0.05077
   2.10935    0.04869
   2.11284    0.04673
   2.11634    0.04489
   2.11983    0.04315
   2.12332    0.04151
   2.12682    0.03996
   2.13031    0.03850
   2.13381    0.03711
   2.13730    0.03580
   2.14079    0.03455
   2.14429    0.03337
   2.14778    0.03225
   2.15128    0.03118
   2.15477    0.03017
   2.15827    0.02920
   2.16176    0.02828
   2.16525    0.02740
   2.16875    0.02656
   2.17224    0.02576
   2.17574    0.02500
   2.17923    0.02426
   2.18273    0.02356
   2.18622    0.02289
   2.18971    0.02225
   2.19321    0.02164
   2.19670    0.02104
   2.20020    0.02048
   2.20369    0.01993
   2.20719    0.01941
   2.21068    0.01891
   2.21417    0.01843
   2.21767    0.01796
   2.22116    0.01751
   2.22466    0.01708
   2.22815    0.01667
   2.23164    0.01627
   2.23514    0.01588
   2.23863    0.01551
   2.24213    0.01515
   2.24562    0.01480
   2.24912    0.01447
   2.25261    0.01414
   2.25610    0.01383
   2.25960    0.01353
   2.26309    0.01323
   2.26659    0.01295
   2.27008    0.01267
   2.27357    0.01241
   2.27707    0.01215
   2.28056    0.01190
   2.28406    0.01166
   2.28755    0.01142
   2.29105    0.01120
   2.29454    0.01098
   2.29803    0.01076
   2.30153    0.01055
   2.30502    0.01035
   2.30852    0.01016
    2.3120     0.0100
    2.3155     0.0098
    2.3190     0.0096
    2.3225     0.0094
    2.3260     0.0093
    2.3295     0.0091
    2.3330     0.0089
    2.3365     0.0088
    2.3400     0.0086
    2.3435     0.0085
    2.3470     0.0083
    2.3504     0.0082
    2.3539     0.0080
    2.3574     0.0079
    2.3609     0.0078
    2.3644     0.0077
    2.3679     0.0075
    2.3714     0.0074
    2.3749     0.0073
    2.3784     0.0072
    2.3819     0.0071
    2.3854     0.0069
    2.3889     0.0068
    2.3924     0.0067
    2.3959     0.0066
    2.3994     0.0065
    2.4029     0.0064
    2.4064     0.0063
    2.4098     0.0062
    2.4133     0.0062
    2.4168     0.0061
    2.4203     0.0060
    2.4238     0.0059
    2.4273     0.0058
    2.4308     0.0057
    2.4343     0.0056
    2.4378     0.0056
    2.4413     0.0055
    2.4448     0.0054
    2.4483     0.0053
    2.4518     0.0053
    2.4553     0.0052
    2.4588     0.0051
    2.4623     0.0051
    2.4658     0.0050
    2.4693     0.0049
    2.4727     0.0049
    2.4762     0.0048
    2.4797     0.0047
    2.4832     0.0047
    2.4867     0.0046
    2.4902     0.0046
    2.4937     0.0045
    2.4972     0.0045
    2.5007     0.0044
    2.5042     0.0044
    2.5077     0.0043
    2.5112     0.0042
    2.5147     0.0042
    2.5182     0.0041
    2.5217     0.0041
    2.5252     0.0041
    2.5287     0.0040
    2.5321     0.0040
    2.5356     0.0039
    2.5391     0.0039
    2.5426     0.0038
    2.5461     0.0038
    2.5496     0.0037
    2.5531     0.0037
    2.5566     0.0037
    2.5601     0.0036
    2.5636     0.0036
    2.5671     0.0035
    2.5706     0.0035
    2.5741     0.0035
    2.5776     0.0034
    2.5811     0.0034
    2.5846     0.0034
    2.5881     0.0033
    2.5915     0.0033
    2.5950     0.0033
    2.5985     0.0032
    2.6020     0.0032
    2.6055     0.0032
    2.6090     0.0031
    2.6125     0.0031
    2.6160     0.0031
    2.6195     0.0030
    2.6230     0.0030
    2.6265     0.0030
    2.6300     0.0030
    2.6335     0.0029
    2.6370     0.0029
    2.6405     0.0029
    2.6440     0.0029
    2.6475     0.0028
    2.6509     0.0028
    2.6544     0.0028
    2.6579     0.0028
    2.6614     0.0027
    2.6649     0.0027
    2.6684     0.0027
  2.672     0.2657E-2
  2.675     0.2634E-2
  2.679     0.2612E-2
  2.682     0.2590E-2
  2.686     0.2568E-2
  2.689     0.2547E-2
  2.693     0.2526E-2
  2.696     0.2506E-2
  2.700     0.2486E-2
  2.703     0.2466E-2
  2.707     0.2446E-2
  2.710     0.2427E-2
  2.714     0.2409E-2
  2.717     0.2390E-2
  2.721     0.2372E-2
  2.724     0.2354E-2
  2.728     0.2336E-2
  2.731     0.2319E-2
  2.735     0.2302E-2
  2.738     0.2285E-2
  2.742     0.2269E-2
  2.745     0.2253E-2
  2.749     0.2237E-2
  2.752     0.2222E-2
  2.756     0.2206E-2
  2.759     0.2191E-2
  2.763     0.2177E-2
  2.766     0.2162E-2
  2.770     0.2148E-2
  2.773     0.2134E-2
  2.777     0.2121E-2
  2.780     0.2107E-2
  2.784     0.2094E-2
  2.787     0.2082E-2
  2.791     0.2069E-2
  2.794     0.2057E-2
  2.798     0.2045E-2
  2.801     0.2033E-2
  2.805     0.2021E-2
  2.808     0.2010E-2
  2.812     0.1999E-2
  2.815     0.1988E-2
  2.819     0.1978E-2
  2.822     0.1968E-2
  2.826     0.1958E-2
  2.829     0.1948E-2
  2.833     0.1939E-2
  2.836     0.1929E-2
  2.840     0.1921E-2
  2.843     0.1912E-2
  2.847     0.1904E-2
  2.850     0.1895E-2
  2.854     0.1888E-2
  2.857     0.1880E-2
  2.861     0.1873E-2
  2.864     0.1866E-2
  2.868     0.1859E-2
  2.871     0.1852E-2
  2.875     0.1846E-2
  2.878     0.1840E-2
  2.882     0.1835E-2
  2.885     0.1830E-2
  2.889     0.1825E-2
  2.892     0.1820E-2
  2.896     0.1815E-2
  2.899     0.1811E-2
  2.903     0.1808E-2
  2.906     0.1804E-2
  2.910     0.1801E-2
  2.913     0.1799E-2
  2.917     0.1796E-2
  2.920     0.1794E-2
  2.923     0.1793E-2
  2.927     0.1792E-2
  2.930     0.1791E-2
  2.934     0.1790E-2
  2.937     0.1790E-2
  2.941     0.1791E-2
  2.944     0.1792E-2
  2.948     0.1793E-2
  2.951     0.1795E-2
  2.955     0.1797E-2
  2.958     0.1800E-2
  2.962     0.1804E-2
  2.965     0.1808E-2
  2.969     0.1812E-2
  2.972     0.1817E-2
  2.976     0.1823E-2
  2.979     0.1830E-2
  2.983     0.1837E-2
  2.986     0.1845E-2
  2.990     0.1853E-2
  2.993     0.1863E-2
  2.997     0.1873E-2
  3.000     0.1884E-2
  3.004     0.1896E-2
  3.007     0.1909E-2
  3.011     0.1923E-2
  3.014     0.1938E-2
  3.018     0.1955E-2
  3.021     0.1972E-2
  3.025     0.1991E-2
  3.028     0.2011E-2
  3.032     0.2033E-2
  3.035     0.2056E-2
  3.039     0.2080E-2
  3.042     0.2107E-2
  3.046     0.2135E-2
  3.049     0.2165E-2
  3.053     0.2197E-2
  3.056     0.2232E-2
  3.060     0.2269E-2
  3.063     0.2309E-2
  3.067     0.2351E-2
  3.070     0.2396E-2
  3.074     0.2445E-2
  3.077     0.2497E-2
  3.081     0.2553E-2
  3.084     0.2613E-2
  3.088     0.2678E-2
  3.091     0.2747E-2
  3.095     0.2822E-2
  3.098     0.2902E-2
  3.102     0.2989E-2
  3.105     0.3082E-2
    3.1087     0.0032
    3.1122     0.0033
    3.1157     0.0034
    3.1192     0.0035
    3.1227     0.0037
    3.1262     0.0038
    3.1297     0.0040
    3.1332     0.0042
    3.1366     0.0044
    3.1401     0.0046
    3.1436     0.0048
    3.1471     0.0051
    3.1506     0.0054
    3.1541     0.0057
    3.1576     0.0061
    3.1611     0.0065
    3.1646     0.0069
    3.1681     0.0074
    3.1716     0.0080
    3.1751     0.0086
    3.1786     0.0093
   3.18207    0.01007
   3.18556    0.01095
   3.18906    0.01193
   3.19255    0.01304
   3.19605    0.01428
   3.19954    0.01565
   3.20303    0.01717
   3.20653    0.01883
   3.21002    0.02061
   3.21352    0.02248
   3.21701    0.02440
   3.22051    0.02629
   3.22400    0.02806
   3.22749    0.02960
   3.23099    0.03078
   3.23448    0.03150
   3.23798    0.03169
   3.24147    0.03131
   3.24497    0.03040
   3.24846    0.02905
   3.25195    0.02737
   3.25545    0.02549
   3.25894    0.02352
   3.26244    0.02156
   3.26593    0.01968
   3.26942    0.01792
   3.27292    0.01630
   3.27641    0.01483
   3.27991    0.01351
   3.28340    0.01233
   3.28690    0.01127
   3.29039    0.01033
    3.2939     0.0095
    3.2974     0.0088
    3.3009     0.0081
    3.3044     0.0075
    3.3079     0.0070
    3.3114     0.0065
    3.3148     0.0061
    3.3183     0.0057
    3.3218     0.0053
    3.3253     0.0050
    3.3288     0.0047
    3.3323     0.0045
    3.3358     0.0042
    3.3393     0.0040
    3.3428     0.0038
    3.3463     0.0036
    3.3498     0.0035
  3.353     0.3321E-2
  3.357     0.3178E-2
  3.360     0.3046E-2
  3.364     0.2924E-2
  3.367     0.2810E-2
  3.371     0.2704E-2
  3.374     0.2605E-2
  3.378     0.2512E-2
  3.381     0.2426E-2
  3.385     0.2345E-2
  3.388     0.2269E-2
  3.392     0.2198E-2
  3.395     0.2131E-2
  3.399     0.2068E-2
  3.402     0.2009E-2
  3.406     0.1953E-2
  3.409     0.1899E-2
  3.413     0.1849E-2
  3.416     0.1802E-2
  3.420     0.1756E-2
  3.423     0.1714E-2
  3.427     0.1673E-2
  3.430     0.1634E-2
  3.434     0.1597E-2
  3.437     0.1562E-2
  3.441     0.1529E-2
  3.444     0.1497E-2
  3.448     0.1466E-2
  3.451     0.1437E-2
  3.455     0.1409E-2
  3.458     0.1382E-2
  3.462     0.1357E-2
  3.465     0.1332E-2
  3.469     0.1308E-2
  3.472     0.1286E-2
  3.476     0.1264E-2
  3.479     0.1243E-2
  3.483     0.1223E-2
  3.486     0.1203E-2
  3.490     0.1185E-2
  3.493     0.1167E-2
  3.497     0.1149E-2
  3.500     0.1132E-2
  3.504     0.1116E-2
  3.507     0.1101E-2
  3.511     0.1085E-2
  3.514     0.1071E-2
  3.518     0.1057E-2
  3.521     0.1043E-2
  3.525     0.1030E-2
  3.528     0.1017E-2
  3.531     0.1004E-2
  3.535     0.9924E-3
  3.538     0.9807E-3
  3.542     0.9693E-3
  3.545     0.9583E-3
  3.549     0.9476E-3
  3.552     0.9372E-3
  3.556     0.9271E-3
  3.559     0.9173E-3
  3.563     0.9077E-3
  3.566     0.8984E-3
  3.570     0.8894E-3
  3.573     0.8806E-3
  3.577     0.8721E-3
  3.580     0.8637E-3
  3.584     0.8556E-3
  3.587     0.8477E-3
  3.591     0.8400E-3
  3.594     0.8325E-3
  3.598     0.8251E-3
  3.601     0.8180E-3
  3.605     0.8110E-3
  3.608     0.8042E-3
  3.612     0.7976E-3
  3.615     0.7911E-3
  3.619     0.7848E-3
  3.622     0.7786E-3
  3.626     0.7726E-3
  3.629     0.7667E-3
  3.633     0.7610E-3
  3.636     0.7554E-3
  3.640     0.7499E-3
  3.643     0.7445E-3
  3.647     0.7393E-3
  3.650     0.7342E-3
  3.654     0.7292E-3
  3.657     0.7243E-3
  3.661     0.7195E-3
  3.664     0.7148E-3
  3.668     0.7103E-3
  3.671     0.7058E-3
  3.675     0.7014E-3
  3.678     0.6972E-3
  3.682     0.6930E-3
  3.685     0.6889E-3
  3.689     0.6850E-3
  3.692     0.6811E-3
  3.696     0.6773E-3
  3.699     0.6736E-3
  3.703     0.6699E-3
  3.706     0.6664E-3
  3.710     0.6629E-3
  3.713     0.6595E-3
  3.717     0.6562E-3
  3.720     0.6530E-3
  3.724     0.6498E-3
  3.727     0.6468E-3
  3.731     0.6438E-3
  3.734     0.6408E-3
  3.738     0.6380E-3
  3.741     0.6352E-3
  3.745     0.6325E-3
  3.748     0.6299E-3
  3.752     0.6273E-3
  3.755     0.6248E-3
  3.759     0.6224E-3
  3.762     0.6200E-3
  3.766     0.6177E-3
  3.769     0.6155E-3
  3.773     0.6133E-3
  3.776     0.6113E-3
  3.780     0.6092E-3
  3.783     0.6073E-3
  3.787     0.6054E-3
  3.790     0.6036E-3
  3.794     0.6018E-3
  3.797     0.6001E-3
  3.801     0.5985E-3
  3.804     0.5969E-3
  3.808     0.5954E-3
  3.811     0.5940E-3
  3.815     0.5927E-3
  3.818     0.5914E-3
  3.822     0.5902E-3
  3.825     0.5890E-3
  3.828     0.5880E-3
  3.832     0.5869E-3
  3.835     0.5860E-3
  3.839     0.5851E-3
  3.842     0.5844E-3
  3.846     0.5836E-3
  3.849     0.5830E-3
  3.853     0.5824E-3
  3.856     0.5819E-3
  3.860     0.5815E-3
  3.863     0.5812E-3
  3.867     0.5810E-3
  3.870     0.5808E-3
  3.874     0.5807E-3
  3.877     0.5807E-3
  3.881     0.5808E-3
  3.884     0.5810E-3
  3.888     0.5813E-3
  3.891     0.5817E-3
  3.895     0.5821E-3
  3.898     0.5827E-3
  3.902     0.5834E-3
  3.905     0.5842E-3
  3.909     0.5850E-3
  3.912     0.5860E-3
  3.916     0.5872E-3
  3.919     0.5884E-3
  3.923     0.5897E-3
  3.926     0.5912E-3
  3.930     0.5928E-3
  3.933     0.5946E-3
  3.937     0.5965E-3
  3.940     0.5985E-3
  3.944     0.6007E-3
  3.947     0.6031E-3
  3.951     0.6056E-3
  3.954     0.6082E-3
  3.958     0.6111E-3
  3.961     0.6141E-3
  3.965     0.6174E-3
  3.968     0.6208E-3
  3.972     0.6244E-3
  3.975     0.6283E-3
  3.979     0.6323E-3
  3.982     0.6367E-3
  3.986     0.6412E-3
  3.989     0.6461E-3
  3.993     0.6512E-3
  3.996     0.6566E-3
  4.000     0.6623E-3
  4.003     0.6683E-3
  4.007     0.6746E-3
  4.010     0.6813E-3
  4.014     0.6884E-3
  4.017     0.6959E-3
  4.021     0.7038E-3
  4.024     0.7121E-3
  4.028     0.7209E-3
  4.031     0.7302E-3
  4.035     0.7400E-3
  4.038     0.7503E-3
  4.042     0.7613E-3
  4.045     0.7729E-3
  4.049     0.7851E-3
  4.052     0.7981E-3
  4.056     0.8118E-3
  4.059     0.8264E-3
  4.063     0.8418E-3
  4.066     0.8581E-3
  4.070     0.8755E-3
  4.073     0.8939E-3
  4.077     0.9135E-3
  4.080     0.9343E-3
  4.084     0.9565E-3
  4.087     0.9801E-3
  4.091     0.1005E-2
  4.094     0.1032E-2
  4.098     0.1061E-2
  4.101     0.1092E-2
  4.105     0.1125E-2
  4.108     0.1160E-2
  4.112     0.1198E-2
  4.115     0.1239E-2
  4.119     0.1283E-2
  4.122     0.1330E-2
  4.126     0.1381E-2
  4.129     0.1436E-2
  4.132     0.1496E-2
  4.136     0.1561E-2
  4.139     0.1632E-2
  4.143     0.1708E-2
  4.146     0.1792E-2
  4.150     0.1884E-2
  4.153     0.1985E-2
  4.157     0.2095E-2
  4.160     0.2216E-2
  4.164     0.2350E-2
  4.167     0.2499E-2
  4.171     0.2663E-2
  4.174     0.2845E-2
  4.178     0.3049E-2
  4.181     0.3276E-2
  4.185     0.3529E-2
  4.188     0.3814E-2
  4.192     0.4133E-2
    4.1954     0.0045
    4.1989     0.0049
    4.2024     0.0053
    4.2059     0.0059
    4.2094     0.0064
    4.2129     0.0071
    4.2164     0.0078
    4.2199     0.0085
    4.2233     0.0093
   4.22684    0.01019
   4.23033    0.01105
   4.23383    0.01188
   4.23732    0.01262
   4.24081    0.01323
   4.24431    0.01365
   4.24780    0.01384
   4.25130    0.01378
   4.25479    0.01348
   4.25829    0.01296
   4.26178    0.01227
   4.26527    0.01148
   4.26877    0.01064
    4.2723     0.0098
    4.2758     0.0089
    4.2793     0.0082
    4.2827     0.0074
    4.2862     0.0068
    4.2897     0.0062
    4.2932     0.0057
    4.2967     0.0052
    4.3002     0.0048
    4.3037     0.0044
  4.307     0.4070E-2
  4.311     0.3781E-2
  4.314     0.3524E-2
  4.318     0.3298E-2
  4.321     0.3098E-2
  4.325     0.2920E-2
  4.328     0.2764E-2
  4.332     0.2626E-2
  4.335     0.2506E-2
  4.339     0.2400E-2
  4.342     0.2308E-2
  4.346     0.2230E-2
  4.349     0.2164E-2
  4.353     0.2109E-2
  4.356     0.2066E-2
  4.360     0.2033E-2
  4.363     0.2012E-2
  4.367     0.2002E-2
  4.370     0.2003E-2
  4.374     0.2015E-2
  4.377     0.2040E-2
  4.381     0.2078E-2
  4.384     0.2130E-2
  4.388     0.2196E-2
  4.391     0.2277E-2
  4.395     0.2372E-2
  4.398     0.2482E-2
  4.402     0.2603E-2
  4.405     0.2733E-2
  4.409     0.2866E-2
  4.412     0.2992E-2
  4.416     0.3103E-2
  4.419     0.3186E-2
  4.423     0.3230E-2
  4.426     0.3230E-2
  4.430     0.3181E-2
  4.433     0.3088E-2
  4.436     0.2958E-2
  4.440     0.2802E-2
  4.443     0.2631E-2
  4.447     0.2456E-2
  4.450     0.2283E-2
  4.454     0.2118E-2
  4.457     0.1964E-2
  4.461     0.1823E-2
  4.464     0.1694E-2
  4.468     0.1578E-2
  4.471     0.1474E-2
  4.475     0.1380E-2
  4.478     0.1296E-2
  4.482     0.1221E-2
  4.485     0.1153E-2
  4.489     0.1093E-2
  4.492     0.1038E-2
  4.496     0.9879E-3
  4.499     0.9428E-3
  4.503     0.9018E-3
  4.506     0.8643E-3
  4.510     0.8301E-3
  4.513     0.7987E-3
  4.517     0.7699E-3
  4.520     0.7432E-3
  4.524     0.7186E-3
  4.527     0.6958E-3
  4.531     0.6746E-3
  4.534     0.6549E-3
  4.538     0.6365E-3
  4.541     0.6193E-3
  4.545     0.6032E-3
  4.548     0.5881E-3
  4.552     0.5739E-3
  4.555     0.5605E-3
  4.559     0.5478E-3
  4.562     0.5359E-3
  4.566     0.5246E-3
  4.569     0.5139E-3
  4.573     0.5037E-3
  4.576     0.4940E-3
  4.580     0.4848E-3
  4.583     0.4760E-3
  4.587     0.4677E-3
  4.590     0.4597E-3
  4.594     0.4520E-3
  4.597     0.4447E-3
  4.601     0.4377E-3
  4.604     0.4310E-3
  4.608     0.4246E-3
  4.611     0.4184E-3
  4.615     0.4124E-3
  4.618     0.4067E-3
  4.622     0.4011E-3
  4.625     0.3958E-3
  4.629     0.3907E-3
  4.632     0.3857E-3
  4.636     0.3809E-3
  4.639     0.3763E-3
  4.643     0.3718E-3
  4.646     0.3674E-3
  4.650     0.3632E-3
  4.653     0.3592E-3
  4.657     0.3552E-3
  4.660     0.3514E-3
  4.664     0.3477E-3
  4.667     0.3441E-3
  4.671     0.3405E-3
  4.674     0.3371E-3
  4.678     0.3338E-3
  4.681     0.3306E-3
  4.685     0.3274E-3
  4.688     0.3244E-3
  4.692     0.3214E-3
  4.695     0.3185E-3
  4.699     0.3156E-3
  4.702     0.3129E-3
  4.706     0.3102E-3
  4.709     0.3075E-3
  4.713     0.3050E-3
  4.716     0.3024E-3
  4.720     0.3000E-3
  4.723     0.2976E-3
  4.727     0.2952E-3
  4.730     0.2929E-3
  4.733     0.2907E-3
  4.737     0.2885E-3
  4.740     0.2863E-3
  4.744     0.2842E-3
  4.747     0.2821E-3
  4.751     0.2801E-3
  4.754     0.2781E-3
  4.758     0.2762E-3
  4.761     0.2743E-3
  4.765     0.2724E-3
  4.768     0.2705E-3
  4.772     0.2687E-3
  4.775     0.2670E-3
  4.779     0.2652E-3
  4.782     0.2635E-3
  4.786     0.2618E-3
  4.789     0.2602E-3
  4.793     0.2586E-3
  4.796     0.2570E-3
  4.800     0.2554E-3
  4.803     0.2538E-3
  4.807     0.2523E-3
  4.810     0.2508E-3
  4.814     0.2494E-3
  4.817     0.2479E-3
  4.821     0.2465E-3
  4.824     0.2451E-3
  4.828     0.2437E-3
  4.831     0.2423E-3
  4.835     0.2410E-3
  4.838     0.2397E-3
  4.842     0.2384E-3
  4.845     0.2371E-3
  4.849     0.2358E-3
  4.852     0.2346E-3
  4.856     0.2334E-3
  4.859     0.2322E-3
  4.863     0.2310E-3
  4.866     0.2298E-3
  4.870     0.2286E-3
  4.873     0.2275E-3
  4.877     0.2263E-3
  4.880     0.2252E-3
  4.884     0.2241E-3
  4.887     0.2230E-3
  4.891     0.2220E-3
  4.894     0.2209E-3
  4.898     0.2198E-3
  4.901     0.2188E-3
  4.905     0.2178E-3
  4.908     0.2168E-3
  4.912     0.2158E-3
  4.915     0.2148E-3
  4.919     0.2138E-3
  4.922     0.2128E-3
# 
# 05/03/2019 at 12:55 YPP @ login2.stampede2.tacc.utexas.edu [start]
# 05/03/2019 at 12:55                                        [end]
#  
# Timing   [Min/Max/Average]: 03s/03s/03s
#
# .-Input file : amp.in
# | excitons                     # [R] Excitons
# | amplitude                    # [R] Amplitude
# | BoseTemp=  0.02585     eV    # Bosonic Temperature
# | States= "1 - 10"             # Index of the BS state(s)
# | #DipWeight                   #  Weight the contribution to the exciton WFs with the dipoles
# | Degen_Step=0.1000E-4   eV    # Maximum energy separation of two degenerate states
