#                                                           
#  ____  ____     _       ____    ____  ______      ___     
# |_  _||_  _|   / \     |_   \  /   _||_   _ \   ."   `.   
#   \ \  / /    / _ \      |   \/   |    | |_) | /  .-.  \  
#    \ \/ /    / ___ \     | |\  /| |    |  __". | |   | |  
#    _|  |_  _/ /   \ \_  _| |_\/_| |_  _| |__) |\  `-"  /  
#   |______||____| |____||_____||_____||_______/  `.___."   
#                                                           
#                                                           
#                                                           
#              GPL Version 4.1.4 Revision 76                
#                        MPI Build                          
#                http://www.yambo-code.org                  
#
# BSK|Identifier              :5641
#    |Dimension               :11943
#    |Bands                   :121 - 172
#    |Exchange           [res]: yes
#    |Correlation        [res]: yes
#    |Kernel`s coupling       : no
#    |Exchange           [cpl]: no
#    |Correlation        [cpl]: no
#    |W interaction is bare   : no
#    |ALDA kernel in R-space  : no
#    |RL vectors    [exchange]:31669
#    |RL vectors [correlation]:387
#    |E/h energy range    [ev]:-1.000000 - -1.000000
#    |Coupling range     [o/o]: 100.0000 -  100.0000
#  W |Interaction is diagonal : no
#    |Matrix size             :2845
#    |Bands                   :1 - 570
#    |e/h energy range    [ev]:-1.000000 - -1.000000
#    |Poles              [o/o]: 100.0000
#    |RL vectors in the sum   :31669
#    |[r,Vnl] included        : yes
#    |Field direction         :-.8660E-5 0.5000E-5  0.000000
#    |Coulomb Cutoff          :box z
#    |xc-Kernel               :none
# RIM|RL components      [col]:0
#    |Random points      [col]:0
#
# Electron-Hole pairs that contributes to Excitonic State 9 more than 5%
#
#  E    [eV]  Amplitude
#  
    1.5307     0.0020
    1.5339     0.0020
    1.5370     0.0020
    1.5402     0.0021
    1.5434     0.0021
    1.5466     0.0021
    1.5497     0.0021
    1.5529     0.0021
    1.5561     0.0021
    1.5593     0.0022
    1.5625     0.0022
    1.5656     0.0022
    1.5688     0.0022
    1.5720     0.0023
    1.5752     0.0023
    1.5784     0.0023
    1.5815     0.0023
    1.5847     0.0024
    1.5879     0.0024
    1.5911     0.0024
    1.5942     0.0024
    1.5974     0.0025
    1.6006     0.0025
    1.6038     0.0025
    1.6070     0.0025
    1.6101     0.0026
    1.6133     0.0026
    1.6165     0.0026
    1.6197     0.0026
    1.6229     0.0027
    1.6260     0.0027
    1.6292     0.0027
    1.6324     0.0028
    1.6356     0.0028
    1.6387     0.0028
    1.6419     0.0029
    1.6451     0.0029
    1.6483     0.0029
    1.6515     0.0030
    1.6546     0.0030
    1.6578     0.0031
    1.6610     0.0031
    1.6642     0.0031
    1.6674     0.0032
    1.6705     0.0032
    1.6737     0.0033
    1.6769     0.0033
    1.6801     0.0034
    1.6832     0.0034
    1.6864     0.0035
    1.6896     0.0035
    1.6928     0.0035
    1.6960     0.0036
    1.6991     0.0037
    1.7023     0.0037
    1.7055     0.0038
    1.7087     0.0038
    1.7119     0.0039
    1.7150     0.0039
    1.7182     0.0040
    1.7214     0.0041
    1.7246     0.0041
    1.7277     0.0042
    1.7309     0.0043
    1.7341     0.0043
    1.7373     0.0044
    1.7405     0.0045
    1.7436     0.0046
    1.7468     0.0046
    1.7500     0.0047
    1.7532     0.0048
    1.7564     0.0049
    1.7595     0.0050
    1.7627     0.0051
    1.7659     0.0052
    1.7691     0.0053
    1.7722     0.0054
    1.7754     0.0055
    1.7786     0.0056
    1.7818     0.0057
    1.7850     0.0058
    1.7881     0.0060
    1.7913     0.0061
    1.7945     0.0062
    1.7977     0.0064
    1.8009     0.0065
    1.8040     0.0066
    1.8072     0.0068
    1.8104     0.0070
    1.8136     0.0071
    1.8167     0.0073
    1.8199     0.0075
    1.8231     0.0077
    1.8263     0.0079
    1.8295     0.0081
    1.8326     0.0083
    1.8358     0.0085
    1.8390     0.0087
    1.8422     0.0090
    1.8454     0.0092
    1.8485     0.0095
    1.8517     0.0098
   1.85489    0.01007
   1.85807    0.01037
   1.86125    0.01070
   1.86443    0.01104
   1.86761    0.01140
   1.87079    0.01177
   1.87396    0.01217
   1.87714    0.01259
   1.88032    0.01304
   1.88350    0.01351
   1.88668    0.01400
   1.88986    0.01453
   1.89304    0.01509
   1.89621    0.01568
   1.89939    0.01632
   1.90257    0.01699
   1.90575    0.01771
   1.90893    0.01848
   1.91211    0.01930
   1.91529    0.02018
   1.91846    0.02112
   1.92164    0.02214
   1.92482    0.02323
   1.92800    0.02441
   1.93118    0.02568
   1.93436    0.02705
   1.93754    0.02854
   1.94071    0.03016
   1.94389    0.03192
   1.94707    0.03384
   1.95025    0.03594
   1.95343    0.03824
   1.95661    0.04077
   1.95979    0.04355
   1.96297    0.04661
   1.96614    0.05000
   1.96932    0.05376
   1.97250    0.05793
   1.97568    0.06258
   1.97886    0.06777
   1.98204    0.07357
   1.98522    0.08008
   1.98839    0.08738
   1.99157    0.09557
  1.994751   0.104779
  1.997930   0.115103
  2.001109   0.126654
  2.004287   0.139519
  2.007466   0.153746
  2.010644   0.169316
  2.013823   0.186108
  2.017002   0.203865
  2.020180   0.222148
  2.023359   0.240327
  2.026538   0.257582
  2.029716   0.272945
  2.032895   0.285384
  2.036073   0.293921
  2.039252   0.297776
  2.042431   0.296514
  2.045609   0.290167
  2.048788   0.279252
  2.051967   0.264689
  2.055145   0.247614
  2.058324   0.229180
  2.061503   0.210393
  2.064681   0.192031
  2.067860   0.174619
  2.071038   0.158467
  2.074217   0.143718
  2.077396   0.130396
  2.080574   0.118450
  2.083753   0.107786
   2.08693    0.09829
   2.09011    0.08985
   2.09329    0.08234
   2.09647    0.07565
   2.09965    0.06969
   2.10282    0.06437
   2.10600    0.05961
   2.10918    0.05534
   2.11236    0.05150
   2.11554    0.04804
   2.11872    0.04492
   2.12190    0.04209
   2.12507    0.03953
   2.12825    0.03719
   2.13143    0.03507
   2.13461    0.03312
   2.13779    0.03135
   2.14097    0.02971
   2.14415    0.02821
   2.14733    0.02683
   2.15050    0.02556
   2.15368    0.02438
   2.15686    0.02329
   2.16004    0.02228
   2.16322    0.02134
   2.16640    0.02047
   2.16958    0.01966
   2.17275    0.01890
   2.17593    0.01820
   2.17911    0.01754
   2.18229    0.01692
   2.18547    0.01634
   2.18865    0.01579
   2.19183    0.01528
   2.19500    0.01480
   2.19818    0.01435
   2.20136    0.01393
   2.20454    0.01353
   2.20772    0.01315
   2.21090    0.01279
   2.21408    0.01246
   2.21726    0.01214
   2.22043    0.01184
   2.22361    0.01155
   2.22679    0.01128
   2.22997    0.01103
   2.23315    0.01079
   2.23633    0.01056
   2.23951    0.01034
   2.24268    0.01013
    2.2459     0.0099
    2.2490     0.0098
    2.2522     0.0096
    2.2554     0.0094
    2.2586     0.0092
    2.2618     0.0091
    2.2649     0.0089
    2.2681     0.0088
    2.2713     0.0087
    2.2745     0.0086
    2.2776     0.0084
    2.2808     0.0083
    2.2840     0.0082
    2.2872     0.0081
    2.2904     0.0080
    2.2935     0.0079
    2.2967     0.0078
    2.2999     0.0078
    2.3031     0.0077
    2.3063     0.0076
    2.3094     0.0075
    2.3126     0.0075
    2.3158     0.0074
    2.3190     0.0074
    2.3221     0.0073
    2.3253     0.0072
    2.3285     0.0072
    2.3317     0.0071
    2.3349     0.0071
    2.3380     0.0071
    2.3412     0.0070
    2.3444     0.0070
    2.3476     0.0070
    2.3508     0.0069
    2.3539     0.0069
    2.3571     0.0069
    2.3603     0.0069
    2.3635     0.0068
    2.3667     0.0068
    2.3698     0.0068
    2.3730     0.0068
    2.3762     0.0068
    2.3794     0.0068
    2.3825     0.0067
    2.3857     0.0067
    2.3889     0.0067
    2.3921     0.0067
    2.3953     0.0067
    2.3984     0.0067
    2.4016     0.0067
    2.4048     0.0067
    2.4080     0.0067
    2.4112     0.0068
    2.4143     0.0068
    2.4175     0.0068
    2.4207     0.0068
    2.4239     0.0068
    2.4270     0.0068
    2.4302     0.0068
    2.4334     0.0069
    2.4366     0.0069
    2.4398     0.0069
    2.4429     0.0069
    2.4461     0.0069
    2.4493     0.0070
    2.4525     0.0070
    2.4557     0.0070
    2.4588     0.0071
    2.4620     0.0071
    2.4652     0.0071
    2.4684     0.0072
    2.4715     0.0072
    2.4747     0.0072
    2.4779     0.0073
    2.4811     0.0073
    2.4843     0.0074
    2.4874     0.0074
    2.4906     0.0075
    2.4938     0.0075
    2.4970     0.0076
    2.5002     0.0076
    2.5033     0.0077
    2.5065     0.0077
    2.5097     0.0078
    2.5129     0.0079
    2.5160     0.0079
    2.5192     0.0080
    2.5224     0.0080
    2.5256     0.0081
    2.5288     0.0082
    2.5319     0.0083
    2.5351     0.0083
    2.5383     0.0084
    2.5415     0.0085
    2.5447     0.0086
    2.5478     0.0087
    2.5510     0.0087
    2.5542     0.0088
    2.5574     0.0089
    2.5605     0.0090
    2.5637     0.0091
    2.5669     0.0092
    2.5701     0.0093
    2.5733     0.0094
    2.5764     0.0095
    2.5796     0.0096
    2.5828     0.0097
    2.5860     0.0099
    2.5892     0.0100
   2.59233    0.01010
   2.59551    0.01023
   2.59869    0.01036
   2.60187    0.01049
   2.60505    0.01063
   2.60823    0.01077
   2.61140    0.01091
   2.61458    0.01106
   2.61776    0.01122
   2.62094    0.01138
   2.62412    0.01154
   2.62730    0.01171
   2.63048    0.01188
   2.63366    0.01206
   2.63683    0.01224
   2.64001    0.01243
   2.64319    0.01263
   2.64637    0.01283
   2.64955    0.01303
   2.65273    0.01325
   2.65591    0.01347
   2.65908    0.01370
   2.66226    0.01393
   2.66544    0.01417
   2.66862    0.01443
   2.67180    0.01469
   2.67498    0.01495
   2.67816    0.01523
   2.68133    0.01552
   2.68451    0.01582
   2.68769    0.01613
   2.69087    0.01645
   2.69405    0.01678
   2.69723    0.01712
   2.70041    0.01748
   2.70358    0.01786
   2.70676    0.01824
   2.70994    0.01865
   2.71312    0.01907
   2.71630    0.01951
   2.71948    0.01996
   2.72266    0.02044
   2.72584    0.02094
   2.72901    0.02146
   2.73219    0.02201
   2.73537    0.02259
   2.73855    0.02319
   2.74173    0.02382
   2.74491    0.02449
   2.74809    0.02519
   2.75126    0.02594
   2.75444    0.02672
   2.75762    0.02756
   2.76080    0.02844
   2.76398    0.02938
   2.76716    0.03038
   2.77034    0.03145
   2.77351    0.03260
   2.77669    0.03382
   2.77987    0.03514
   2.78305    0.03657
   2.78623    0.03810
   2.78941    0.03977
   2.79259    0.04158
   2.79576    0.04354
   2.79894    0.04569
   2.80212    0.04803
   2.80530    0.05058
   2.80848    0.05337
   2.81166    0.05641
   2.81484    0.05970
   2.81802    0.06325
   2.82119    0.06702
   2.82437    0.07098
   2.82755    0.07504
   2.83073    0.07908
   2.83391    0.08296
   2.83709    0.08654
   2.84027    0.08969
   2.84344    0.09231
   2.84662    0.09443
   2.84980    0.09612
   2.85298    0.09753
   2.85616    0.09886
  2.859337   0.100296
  2.862516   0.102020
  2.865695   0.104179
  2.868873   0.106894
  2.872052   0.110261
  2.875230   0.114365
  2.878409   0.119280
  2.881588   0.125083
  2.884766   0.131851
  2.887945   0.139666
  2.891124   0.148613
  2.894302   0.158772
  2.897481   0.170214
  2.900659   0.182982
  2.903838   0.197068
  2.907017   0.212391
  2.910195   0.228758
  2.913374   0.245847
  2.916553   0.263193
  2.919731   0.280204
  2.922910   0.296229
  2.926089   0.310642
  2.929267   0.322918
  2.932446   0.332694
  2.935624   0.339761
  2.938803   0.344040
  2.941982   0.345568
  2.945160   0.344512
  2.948339   0.341202
  2.951517   0.336132
  2.954696   0.329907
  2.957875   0.323160
  2.961053   0.316469
  2.964232   0.310298
  2.967411   0.304987
  2.970589   0.300758
  2.973768   0.297756
  2.976946   0.296075
  2.980125   0.295802
  2.983304   0.297033
  2.986482   0.299867
  2.989661   0.304390
  2.992839   0.310646
  2.996018   0.318609
  2.999197   0.328167
  3.002375   0.339126
  3.005554   0.351225
  3.008733   0.364148
  3.011911   0.377548
  3.015090   0.391067
  3.018269   0.404368
  3.021447   0.417210
  3.024626   0.429533
  3.027804   0.441532
  3.030983   0.453673
  3.034162   0.466634
  3.037340   0.481196
  3.040519   0.498103
  3.043698   0.517962
  3.046876   0.541171
  3.050055   0.567888
  3.053233   0.598010
  3.056412   0.631194
  3.059591   0.666876
  3.062769   0.704340
  3.065948   0.742808
  3.069126   0.781582
  3.072305   0.820100
  3.075484   0.857880
  3.078662   0.894325
  3.081841   0.928423
  3.085020   0.958506
  3.088198   0.982235
  3.091377   0.996898
  3.094556   1.000000
  3.097734   0.989953
  3.100913   0.966590
  3.104091   0.931262
  3.107270   0.886488
  3.110449   0.835347
  3.113627   0.780839
  3.116806   0.725469
  3.119985   0.671099
  3.123163   0.618960
  3.126342   0.569810
  3.129520   0.524090
  3.132699   0.482022
  3.135878   0.443682
  3.139056   0.409038
  3.142235   0.377972
  3.145413   0.350296
  3.148592   0.325780
  3.151771   0.304167
  3.154949   0.285194
  3.158128   0.268596
  3.161307   0.254122
  3.164485   0.241544
  3.167664   0.230660
  3.170843   0.221307
  3.174021   0.213362
  3.177200   0.206745
  3.180378   0.201404
  3.183557   0.197309
  3.186736   0.194427
  3.189914   0.192712
  3.193093   0.192079
  3.196272   0.192391
  3.199450   0.193438
  3.202629   0.194929
  3.205807   0.196498
  3.208986   0.197730
  3.212165   0.198221
  3.215343   0.197651
  3.218522   0.195857
  3.221700   0.192879
  3.224879   0.188941
  3.228058   0.184396
  3.231236   0.179641
  3.234415   0.175035
  3.237594   0.170841
  3.240772   0.167196
  3.243951   0.164105
  3.247129   0.161447
  3.250308   0.159005
  3.253487   0.156504
  3.256665   0.153671
  3.259844   0.150296
  3.263022   0.146277
  3.266201   0.141630
  3.269380   0.136467
  3.272559   0.130942
  3.275737   0.125207
  3.278916   0.119377
  3.282094   0.113530
  3.285273   0.107718
  3.288452   0.101987
   3.29163    0.09639
   3.29481    0.09098
   3.29799    0.08582
   3.30117    0.08096
   3.30434    0.07644
   3.30752    0.07226
   3.31070    0.06844
   3.31388    0.06496
   3.31706    0.06181
   3.32024    0.05895
   3.32342    0.05638
   3.32660    0.05405
   3.32977    0.05196
   3.33295    0.05008
   3.33613    0.04839
   3.33931    0.04687
   3.34249    0.04551
   3.34567    0.04430
   3.34885    0.04323
   3.35202    0.04229
   3.35520    0.04148
   3.35838    0.04078
   3.36156    0.04020
   3.36474    0.03973
   3.36792    0.03938
   3.37110    0.03914
   3.37427    0.03902
   3.37745    0.03902
   3.38063    0.03915
   3.38381    0.03942
   3.38699    0.03983
   3.39017    0.04040
   3.39335    0.04114
   3.39652    0.04206
   3.39970    0.04318
   3.40288    0.04452
   3.40606    0.04610
   3.40924    0.04791
   3.41242    0.04998
   3.41560    0.05229
   3.41878    0.05482
   3.42195    0.05752
   3.42513    0.06032
   3.42831    0.06311
   3.43149    0.06577
   3.43467    0.06819
   3.43785    0.07027
   3.44103    0.07198
   3.44420    0.07335
   3.44738    0.07448
   3.45056    0.07551
   3.45374    0.07660
   3.45692    0.07786
   3.46010    0.07936
   3.46328    0.08112
   3.46645    0.08305
   3.46963    0.08501
   3.47281    0.08678
   3.47599    0.08813
   3.47917    0.08882
   3.48235    0.08871
   3.48553    0.08775
   3.48871    0.08601
   3.49188    0.08365
   3.49506    0.08088
   3.49824    0.07789
   3.50142    0.07484
   3.50460    0.07179
   3.50778    0.06876
   3.51096    0.06575
   3.51413    0.06270
   3.51731    0.05961
   3.52049    0.05648
   3.52367    0.05334
   3.52685    0.05025
   3.53003    0.04727
   3.53321    0.04446
   3.53638    0.04184
   3.53956    0.03943
   3.54274    0.03726
   3.54592    0.03531
   3.54910    0.03358
   3.55228    0.03206
   3.55546    0.03072
   3.55863    0.02956
   3.56181    0.02856
   3.56499    0.02771
   3.56817    0.02701
   3.57135    0.02644
   3.57453    0.02599
   3.57771    0.02568
   3.58088    0.02548
   3.58406    0.02541
   3.58724    0.02547
   3.59042    0.02565
   3.59360    0.02597
   3.59678    0.02644
   3.59996    0.02704
   3.60314    0.02780
   3.60631    0.02872
   3.60949    0.02979
   3.61267    0.03102
   3.61585    0.03238
   3.61903    0.03385
   3.62221    0.03540
   3.62539    0.03697
   3.62856    0.03849
   3.63174    0.03989
   3.63492    0.04106
   3.63810    0.04191
   3.64128    0.04233
   3.64446    0.04228
   3.64764    0.04173
   3.65081    0.04073
   3.65399    0.03938
   3.65717    0.03780
   3.66035    0.03609
   3.66353    0.03439
   3.66671    0.03277
   3.66989    0.03129
   3.67306    0.02999
   3.67624    0.02889
   3.67942    0.02800
   3.68260    0.02732
   3.68578    0.02685
   3.68896    0.02657
   3.69214    0.02647
   3.69532    0.02654
   3.69849    0.02674
   3.70167    0.02704
   3.70485    0.02741
   3.70803    0.02780
   3.71121    0.02817
   3.71439    0.02849
   3.71757    0.02874
   3.72074    0.02893
   3.72392    0.02905
   3.72710    0.02911
   3.73028    0.02909
   3.73346    0.02899
   3.73664    0.02875
   3.73982    0.02835
   3.74299    0.02775
   3.74617    0.02695
   3.74935    0.02596
   3.75253    0.02483
   3.75571    0.02361
   3.75889    0.02236
   3.76207    0.02113
   3.76525    0.01995
   3.76842    0.01886
   3.77160    0.01785
   3.77478    0.01693
   3.77796    0.01612
   3.78114    0.01539
   3.78432    0.01475
   3.78750    0.01419
   3.79067    0.01370
   3.79385    0.01327
   3.79703    0.01291
   3.80021    0.01260
   3.80339    0.01234
   3.80657    0.01213
   3.80975    0.01197
   3.81292    0.01185
   3.81610    0.01177
   3.81928    0.01173
   3.82246    0.01173
   3.82564    0.01178
   3.82882    0.01187
   3.83200    0.01200
   3.83518    0.01218
   3.83835    0.01242
   3.84153    0.01271
   3.84471    0.01306
   3.84789    0.01348
   3.85107    0.01397
   3.85425    0.01455
   3.85743    0.01522
   3.86060    0.01600
   3.86378    0.01689
   3.86696    0.01790
   3.87014    0.01906
   3.87332    0.02036
   3.87650    0.02182
   3.87968    0.02342
   3.88285    0.02516
   3.88603    0.02700
   3.88921    0.02888
   3.89239    0.03074
   3.89557    0.03247
   3.89875    0.03397
   3.90193    0.03513
   3.90510    0.03589
   3.90828    0.03621
   3.91146    0.03608
   3.91464    0.03554
   3.91782    0.03462
   3.92100    0.03338
   3.92418    0.03188
   3.92736    0.03018
   3.93053    0.02835
   3.93371    0.02646
   3.93689    0.02458
   3.94007    0.02275
   3.94325    0.02102
   3.94643    0.01941
   3.94961    0.01794
   3.95278    0.01660
   3.95596    0.01539
   3.95914    0.01431
   3.96232    0.01334
   3.96550    0.01247
   3.96868    0.01169
   3.97186    0.01099
   3.97503    0.01037
    3.9782     0.0098
    3.9814     0.0093
    3.9846     0.0088
    3.9877     0.0084
    3.9909     0.0080
    3.9941     0.0077
    3.9973     0.0074
    4.0005     0.0071
    4.0036     0.0068
    4.0068     0.0066
    4.0100     0.0064
    4.0132     0.0062
    4.0164     0.0060
    4.0195     0.0058
    4.0227     0.0056
    4.0259     0.0055
    4.0291     0.0053
    4.0322     0.0052
    4.0354     0.0051
    4.0386     0.0049
    4.0418     0.0048
    4.0450     0.0047
    4.0481     0.0046
    4.0513     0.0045
    4.0545     0.0044
    4.0577     0.0044
    4.0609     0.0043
    4.0640     0.0042
    4.0672     0.0041
    4.0704     0.0041
  4.074     0.4018E-2
  4.077     0.3961E-2
  4.080     0.3908E-2
  4.083     0.3858E-2
  4.086     0.3811E-2
  4.089     0.3768E-2
  4.093     0.3727E-2
  4.096     0.3690E-2
  4.099     0.3656E-2
  4.102     0.3626E-2
  4.105     0.3598E-2
  4.109     0.3574E-2
  4.112     0.3553E-2
  4.115     0.3535E-2
  4.118     0.3522E-2
  4.121     0.3512E-2
  4.124     0.3506E-2
  4.128     0.3505E-2
  4.131     0.3509E-2
  4.134     0.3518E-2
  4.137     0.3532E-2
  4.140     0.3553E-2
  4.144     0.3581E-2
  4.147     0.3617E-2
  4.150     0.3662E-2
  4.153     0.3716E-2
  4.156     0.3781E-2
  4.159     0.3859E-2
  4.163     0.3951E-2
  4.166     0.4059E-2
    4.1689     0.0042
    4.1721     0.0043
    4.1753     0.0045
    4.1785     0.0047
    4.1816     0.0049
    4.1848     0.0051
    4.1880     0.0054
    4.1912     0.0056
    4.1944     0.0059
    4.1975     0.0061
    4.2007     0.0063
    4.2039     0.0065
    4.2071     0.0066
    4.2103     0.0065
    4.2134     0.0065
    4.2166     0.0063
    4.2198     0.0061
    4.2230     0.0058
    4.2261     0.0055
    4.2293     0.0052
    4.2325     0.0049
    4.2357     0.0046
    4.2389     0.0044
  4.242     0.4143E-2
  4.245     0.3927E-2
  4.248     0.3733E-2
  4.252     0.3558E-2
  4.255     0.3400E-2
  4.258     0.3259E-2
  4.261     0.3132E-2
  4.264     0.3017E-2
  4.267     0.2913E-2
  4.271     0.2820E-2
  4.274     0.2734E-2
  4.277     0.2657E-2
  4.280     0.2586E-2
  4.283     0.2520E-2
  4.287     0.2460E-2
  4.290     0.2405E-2
  4.293     0.2354E-2
  4.296     0.2306E-2
  4.299     0.2262E-2
  4.302     0.2220E-2
  4.306     0.2181E-2
  4.309     0.2144E-2
  4.312     0.2110E-2
  4.315     0.2077E-2
  4.318     0.2047E-2
  4.322     0.2017E-2
  4.325     0.1990E-2
  4.328     0.1963E-2
  4.331     0.1938E-2
  4.334     0.1914E-2
  4.337     0.1891E-2
  4.341     0.1868E-2
  4.344     0.1847E-2
  4.347     0.1826E-2
  4.350     0.1807E-2
  4.353     0.1788E-2
  4.356     0.1769E-2
  4.360     0.1751E-2
  4.363     0.1734E-2
  4.366     0.1717E-2
  4.369     0.1701E-2
  4.372     0.1685E-2
  4.376     0.1670E-2
  4.379     0.1655E-2
  4.382     0.1641E-2
  4.385     0.1627E-2
  4.388     0.1613E-2
  4.391     0.1599E-2
  4.395     0.1586E-2
  4.398     0.1573E-2
  4.401     0.1561E-2
  4.404     0.1548E-2
  4.407     0.1536E-2
  4.411     0.1525E-2
  4.414     0.1513E-2
  4.417     0.1502E-2
  4.420     0.1491E-2
  4.423     0.1480E-2
  4.426     0.1469E-2
  4.430     0.1459E-2
  4.433     0.1448E-2
  4.436     0.1438E-2
  4.439     0.1428E-2
  4.442     0.1418E-2
  4.445     0.1409E-2
  4.449     0.1399E-2
  4.452     0.1390E-2
  4.455     0.1381E-2
  4.458     0.1372E-2
  4.461     0.1363E-2
  4.465     0.1354E-2
  4.468     0.1345E-2
  4.471     0.1337E-2
  4.474     0.1328E-2
  4.477     0.1320E-2
  4.480     0.1312E-2
  4.484     0.1304E-2
  4.487     0.1296E-2
  4.490     0.1288E-2
  4.493     0.1280E-2
  4.496     0.1273E-2
  4.500     0.1265E-2
  4.503     0.1258E-2
  4.506     0.1250E-2
  4.509     0.1243E-2
  4.512     0.1236E-2
  4.515     0.1229E-2
  4.519     0.1222E-2
  4.522     0.1215E-2
  4.525     0.1208E-2
  4.528     0.1201E-2
  4.531     0.1194E-2
  4.534     0.1188E-2
  4.538     0.1181E-2
  4.541     0.1174E-2
  4.544     0.1168E-2
  4.547     0.1162E-2
  4.550     0.1155E-2
  4.554     0.1149E-2
  4.557     0.1143E-2
  4.560     0.1137E-2
  4.563     0.1131E-2
  4.566     0.1125E-2
  4.569     0.1119E-2
  4.573     0.1113E-2
  4.576     0.1107E-2
  4.579     0.1101E-2
  4.582     0.1096E-2
  4.585     0.1090E-2
  4.589     0.1085E-2
  4.592     0.1079E-2
  4.595     0.1074E-2
  4.598     0.1068E-2
  4.601     0.1063E-2
  4.604     0.1057E-2
  4.608     0.1052E-2
  4.611     0.1047E-2
  4.614     0.1042E-2
  4.617     0.1037E-2
  4.620     0.1031E-2
  4.623     0.1026E-2
  4.627     0.1021E-2
  4.630     0.1016E-2
  4.633     0.1011E-2
  4.636     0.1007E-2
  4.639     0.1002E-2
  4.643     0.9969E-3
  4.646     0.9922E-3
  4.649     0.9875E-3
  4.652     0.9828E-3
  4.655     0.9781E-3
  4.658     0.9735E-3
  4.662     0.9690E-3
  4.665     0.9645E-3
  4.668     0.9600E-3
  4.671     0.9555E-3
  4.674     0.9511E-3
  4.678     0.9467E-3
  4.681     0.9424E-3
  4.684     0.9380E-3
  4.687     0.9338E-3
  4.690     0.9295E-3
  4.693     0.9253E-3
  4.697     0.9211E-3
  4.700     0.9170E-3
  4.703     0.9129E-3
  4.706     0.9088E-3
# 
# 05/03/2019 at 12:55 YPP @ login2.stampede2.tacc.utexas.edu [start]
# 05/03/2019 at 12:55                                        [end]
#  
# Timing   [Min/Max/Average]: 03s/03s/03s
#
# .-Input file : amp.in
# | excitons                     # [R] Excitons
# | amplitude                    # [R] Amplitude
# | BoseTemp=  0.02585     eV    # Bosonic Temperature
# | States= "1 - 10"             # Index of the BS state(s)
# | #DipWeight                   #  Weight the contribution to the exciton WFs with the dipoles
# | Degen_Step=0.1000E-4   eV    # Maximum energy separation of two degenerate states
