#                                                           
#  __  __   ________   ___ __ __    _______   ______        
# /_/\/_/\ /_______/\ /__//_//_/\ /_______/\ /_____/\       
# \ \ \ \ \\::: _  \ \\::\| \| \ \\::: _  \ \\:::_ \ \      
#  \:\_\ \ \\::(_)  \ \\:.      \ \\::(_)  \/_\:\ \ \ \     
#   \::::_\/ \:: __  \ \\:.\-/\  \ \\::  _  \ \\:\ \ \ \    
#     \::\ \  \:.\ \  \ \\. \  \  \ \\::(_)  \ \\:\_\ \ \   
#      \__\/   \__\/\__\/ \__\/ \__\/ \_______\/ \_____\/   
#                                                           
#                                                           
#              GPL Version 4.1.4 Revision 76                
#                        MPI Build                          
#                http://www.yambo-code.org                  
#
# BSK|Identifier              :2467
#    |Dimension               :14580
#    |Bands                   :100 - 180
#    |Exchange           [res]: yes
#    |Correlation        [res]: yes
#    |Kernel`s coupling       : no
#    |Exchange           [cpl]: no
#    |Correlation        [cpl]: no
#    |W interaction is bare   : no
#    |ALDA kernel in R-space  : no
#    |RL vectors    [exchange]:27983
#    |RL vectors [correlation]:4011
#    |E/h energy range    [ev]:-1.000000 - -1.000000
#    |Coupling range     [o/o]: 100.0000 -  100.0000
#  W |Interaction is diagonal : no
#    |Matrix size             :8049
#    |Bands                   :1 - 1800
#    |e/h energy range    [ev]:-1.000000 - -1.000000
#    |Poles              [o/o]: 100.0000
#    |RL vectors in the sum   :27983
#    |[r,Vnl] included        : yes
#    |Field direction         :0.1000E-4  0.000000  0.000000
#    |Coulomb Cutoff          :box z
#    |xc-Kernel               :none
# RIM|RL components      [col]:0
#    |Random points      [col]:0
#
# Electron-Hole pairs that contributes to Excitonic State 5 more than 5%
#
#  E    [eV]  Amplitude
#  
  3.053     0.1082E-2
  3.056     0.1087E-2
  3.060     0.1092E-2
  3.063     0.1097E-2
  3.066     0.1102E-2
  3.069     0.1107E-2
  3.072     0.1112E-2
  3.076     0.1118E-2
  3.079     0.1123E-2
  3.082     0.1128E-2
  3.085     0.1133E-2
  3.088     0.1139E-2
  3.092     0.1144E-2
  3.095     0.1149E-2
  3.098     0.1155E-2
  3.101     0.1160E-2
  3.104     0.1166E-2
  3.108     0.1172E-2
  3.111     0.1177E-2
  3.114     0.1183E-2
  3.117     0.1188E-2
  3.121     0.1194E-2
  3.124     0.1200E-2
  3.127     0.1206E-2
  3.130     0.1212E-2
  3.133     0.1218E-2
  3.137     0.1224E-2
  3.140     0.1230E-2
  3.143     0.1236E-2
  3.146     0.1242E-2
  3.149     0.1248E-2
  3.153     0.1254E-2
  3.156     0.1261E-2
  3.159     0.1267E-2
  3.162     0.1273E-2
  3.165     0.1280E-2
  3.169     0.1286E-2
  3.172     0.1293E-2
  3.175     0.1300E-2
  3.178     0.1306E-2
  3.181     0.1313E-2
  3.185     0.1320E-2
  3.188     0.1327E-2
  3.191     0.1334E-2
  3.194     0.1341E-2
  3.198     0.1348E-2
  3.201     0.1355E-2
  3.204     0.1362E-2
  3.207     0.1369E-2
  3.210     0.1376E-2
  3.214     0.1384E-2
  3.217     0.1391E-2
  3.220     0.1399E-2
  3.223     0.1406E-2
  3.226     0.1414E-2
  3.230     0.1422E-2
  3.233     0.1430E-2
  3.236     0.1437E-2
  3.239     0.1445E-2
  3.242     0.1453E-2
  3.246     0.1462E-2
  3.249     0.1470E-2
  3.252     0.1478E-2
  3.255     0.1487E-2
  3.258     0.1495E-2
  3.262     0.1504E-2
  3.265     0.1512E-2
  3.268     0.1521E-2
  3.271     0.1530E-2
  3.275     0.1539E-2
  3.278     0.1548E-2
  3.281     0.1557E-2
  3.284     0.1566E-2
  3.287     0.1576E-2
  3.291     0.1585E-2
  3.294     0.1595E-2
  3.297     0.1605E-2
  3.300     0.1615E-2
  3.303     0.1625E-2
  3.307     0.1635E-2
  3.310     0.1645E-2
  3.313     0.1655E-2
  3.316     0.1666E-2
  3.319     0.1677E-2
  3.323     0.1688E-2
  3.326     0.1699E-2
  3.329     0.1710E-2
  3.332     0.1721E-2
  3.335     0.1733E-2
  3.339     0.1744E-2
  3.342     0.1756E-2
  3.345     0.1768E-2
  3.348     0.1781E-2
  3.352     0.1793E-2
  3.355     0.1806E-2
  3.358     0.1819E-2
  3.361     0.1832E-2
  3.364     0.1846E-2
  3.368     0.1860E-2
  3.371     0.1874E-2
  3.374     0.1888E-2
  3.377     0.1903E-2
  3.380     0.1918E-2
  3.384     0.1933E-2
  3.387     0.1949E-2
  3.390     0.1965E-2
  3.393     0.1981E-2
  3.396     0.1998E-2
  3.400     0.2016E-2
  3.403     0.2034E-2
  3.406     0.2052E-2
  3.409     0.2071E-2
  3.412     0.2091E-2
  3.416     0.2111E-2
  3.419     0.2132E-2
  3.422     0.2154E-2
  3.425     0.2177E-2
  3.429     0.2200E-2
  3.432     0.2225E-2
  3.435     0.2250E-2
  3.438     0.2277E-2
  3.441     0.2305E-2
  3.445     0.2334E-2
  3.448     0.2365E-2
  3.451     0.2398E-2
  3.454     0.2432E-2
  3.457     0.2469E-2
  3.461     0.2508E-2
  3.464     0.2549E-2
  3.467     0.2593E-2
  3.470     0.2640E-2
  3.473     0.2691E-2
  3.477     0.2746E-2
  3.480     0.2805E-2
  3.483     0.2870E-2
  3.486     0.2940E-2
  3.490     0.3016E-2
  3.493     0.3101E-2
  3.496     0.3193E-2
  3.499     0.3296E-2
  3.502     0.3409E-2
    3.5055     0.0035
    3.5088     0.0037
    3.5120     0.0038
    3.5152     0.0040
    3.5184     0.0042
    3.5216     0.0044
    3.5248     0.0046
    3.5280     0.0049
    3.5312     0.0052
    3.5344     0.0054
    3.5376     0.0057
    3.5408     0.0060
    3.5440     0.0062
    3.5473     0.0064
    3.5505     0.0065
    3.5537     0.0066
    3.5569     0.0065
    3.5601     0.0064
    3.5633     0.0063
    3.5665     0.0060
    3.5697     0.0058
    3.5729     0.0056
    3.5761     0.0053
    3.5793     0.0051
    3.5825     0.0049
    3.5858     0.0047
    3.5890     0.0045
    3.5922     0.0044
    3.5954     0.0042
    3.5986     0.0041
    3.6018     0.0040
    3.6050     0.0039
    3.6082     0.0039
    3.6114     0.0038
    3.6146     0.0037
    3.6178     0.0037
    3.6211     0.0037
    3.6243     0.0036
  3.627     0.3600E-2
  3.631     0.3578E-2
  3.634     0.3561E-2
  3.637     0.3548E-2
  3.640     0.3539E-2
  3.644     0.3532E-2
  3.647     0.3529E-2
  3.650     0.3528E-2
  3.653     0.3530E-2
  3.656     0.3533E-2
  3.660     0.3539E-2
  3.663     0.3546E-2
  3.666     0.3555E-2
  3.669     0.3566E-2
  3.672     0.3578E-2
  3.676     0.3592E-2
  3.679     0.3606E-2
  3.682     0.3622E-2
  3.685     0.3639E-2
  3.688     0.3657E-2
  3.692     0.3676E-2
    3.6948     0.0037
    3.6981     0.0037
    3.7013     0.0037
    3.7045     0.0038
    3.7077     0.0038
    3.7109     0.0038
    3.7141     0.0038
    3.7173     0.0039
    3.7205     0.0039
    3.7237     0.0039
    3.7269     0.0039
    3.7301     0.0040
    3.7333     0.0040
    3.7366     0.0040
    3.7398     0.0041
    3.7430     0.0041
    3.7462     0.0041
    3.7494     0.0042
    3.7526     0.0042
    3.7558     0.0042
    3.7590     0.0043
    3.7622     0.0043
    3.7654     0.0043
    3.7686     0.0044
    3.7719     0.0044
    3.7751     0.0044
    3.7783     0.0045
    3.7815     0.0045
    3.7847     0.0046
    3.7879     0.0046
    3.7911     0.0046
    3.7943     0.0047
    3.7975     0.0047
    3.8007     0.0048
    3.8039     0.0048
    3.8071     0.0049
    3.8104     0.0049
    3.8136     0.0050
    3.8168     0.0050
    3.8200     0.0050
    3.8232     0.0051
    3.8264     0.0051
    3.8296     0.0052
    3.8328     0.0052
    3.8360     0.0053
    3.8392     0.0054
    3.8424     0.0054
    3.8456     0.0055
    3.8489     0.0055
    3.8521     0.0056
    3.8553     0.0056
    3.8585     0.0057
    3.8617     0.0058
    3.8649     0.0058
    3.8681     0.0059
    3.8713     0.0059
    3.8745     0.0060
    3.8777     0.0061
    3.8809     0.0061
    3.8842     0.0062
    3.8874     0.0063
    3.8906     0.0064
    3.8938     0.0064
    3.8970     0.0065
    3.9002     0.0066
    3.9034     0.0066
    3.9066     0.0067
    3.9098     0.0068
    3.9130     0.0069
    3.9162     0.0070
    3.9194     0.0071
    3.9227     0.0071
    3.9259     0.0072
    3.9291     0.0073
    3.9323     0.0074
    3.9355     0.0075
    3.9387     0.0076
    3.9419     0.0077
    3.9451     0.0078
    3.9483     0.0079
    3.9515     0.0080
    3.9547     0.0081
    3.9579     0.0082
    3.9612     0.0083
    3.9644     0.0084
    3.9676     0.0085
    3.9708     0.0086
    3.9740     0.0088
    3.9772     0.0089
    3.9804     0.0090
    3.9836     0.0091
    3.9868     0.0093
    3.9900     0.0094
    3.9932     0.0095
    3.9964     0.0097
    3.9997     0.0098
    4.0029     0.0100
   4.00607    0.01010
   4.00928    0.01025
   4.01249    0.01041
   4.01570    0.01057
   4.01891    0.01073
   4.02212    0.01090
   4.02533    0.01107
   4.02853    0.01124
   4.03174    0.01142
   4.03495    0.01160
   4.03816    0.01179
   4.04137    0.01199
   4.04458    0.01219
   4.04779    0.01239
   4.05099    0.01260
   4.05420    0.01282
   4.05741    0.01304
   4.06062    0.01326
   4.06383    0.01350
   4.06704    0.01374
   4.07025    0.01399
   4.07345    0.01424
   4.07666    0.01450
   4.07987    0.01477
   4.08308    0.01505
   4.08629    0.01534
   4.08950    0.01563
   4.09271    0.01594
   4.09591    0.01625
   4.09912    0.01658
   4.10233    0.01691
   4.10554    0.01726
   4.10875    0.01761
   4.11196    0.01798
   4.11516    0.01836
   4.11837    0.01876
   4.12158    0.01917
   4.12479    0.01959
   4.12800    0.02003
   4.13121    0.02049
   4.13442    0.02096
   4.13762    0.02145
   4.14083    0.02196
   4.14404    0.02249
   4.14725    0.02304
   4.15046    0.02361
   4.15367    0.02421
   4.15688    0.02483
   4.16008    0.02548
   4.16329    0.02615
   4.16650    0.02686
   4.16971    0.02760
   4.17292    0.02837
   4.17613    0.02918
   4.17934    0.03003
   4.18254    0.03092
   4.18575    0.03186
   4.18896    0.03284
   4.19217    0.03387
   4.19538    0.03497
   4.19859    0.03612
   4.20180    0.03734
   4.20500    0.03863
   4.20821    0.04000
   4.21142    0.04145
   4.21463    0.04299
   4.21784    0.04464
   4.22105    0.04639
   4.22425    0.04827
   4.22746    0.05028
   4.23067    0.05244
   4.23388    0.05476
   4.23709    0.05727
   4.24030    0.05997
   4.24351    0.06289
   4.24671    0.06606
   4.24992    0.06949
   4.25313    0.07321
   4.25634    0.07724
   4.25955    0.08160
   4.26276    0.08630
   4.26597    0.09134
   4.26917    0.09671
  4.272383   0.102386
  4.275591   0.108331
  4.278800   0.114518
  4.282008   0.120935
  4.285217   0.127607
  4.288425   0.134610
  4.291634   0.142069
  4.294842   0.150153
  4.298051   0.159054
  4.301260   0.168972
  4.304468   0.180098
  4.307677   0.192597
  4.310885   0.206599
  4.314094   0.222175
  4.317302   0.239311
  4.320511   0.257876
  4.323719   0.277563
  4.326928   0.297854
  4.330136   0.317994
  4.333345   0.337021
  4.336554   0.353862
  4.339762   0.367524
  4.342970   0.377318
  4.346179   0.383056
  4.349387   0.385122
  4.352596   0.384394
  4.355804   0.382048
  4.359013   0.379326
  4.362222   0.377347
  4.365430   0.376999
  4.368639   0.378898
  4.371847   0.383390
  4.375056   0.390567
  4.378264   0.400290
  4.381473   0.412211
  4.384681   0.425802
  4.387890   0.440406
  4.391098   0.455316
  4.394307   0.469871
  4.397516   0.483533
  4.400724   0.495935
  4.403932   0.506886
  4.407141   0.516361
  4.410349   0.524483
  4.413558   0.531527
  4.416767   0.537935
  4.419975   0.544304
  4.423184   0.551358
  4.426392   0.559887
  4.429601   0.570689
  4.432809   0.584527
  4.436018   0.602098
  4.439226   0.623987
  4.442435   0.650624
  4.445643   0.682173
  4.448852   0.718448
  4.452061   0.758814
  4.455269   0.802113
  4.458477   0.846641
  4.461686   0.890187
  4.464895   0.930139
  4.468103   0.963633
  4.471312   0.987796
  4.474520   1.000000
  4.477729   0.998292
  4.480937   0.981822
  4.484146   0.951149
  4.487354   0.908229
  4.490563   0.856060
  4.493772   0.798090
  4.496980   0.737635
  4.500188   0.677437
  4.503397   0.619534
  4.506606   0.565233
  4.509814   0.515239
  4.513022   0.469809
  4.516231   0.428897
  4.519440   0.392273
  4.522648   0.359608
  4.525857   0.330534
  4.529065   0.304680
  4.532274   0.281684
  4.535482   0.261220
  4.538691   0.242992
  4.541899   0.226739
  4.545108   0.212229
  4.548316   0.199262
  4.551525   0.187664
  4.554733   0.177286
  4.557942   0.167994
  4.561151   0.159679
  4.564359   0.152246
  4.567567   0.145612
  4.570776   0.139706
  4.573985   0.134467
  4.577193   0.129842
  4.580402   0.125782
  4.583611   0.122243
  4.586819   0.119179
  4.590027   0.116544
  4.593235   0.114289
  4.596444   0.112359
  4.599653   0.110699
  4.602861   0.109262
  4.606070   0.108009
  4.609279   0.106924
  4.612487   0.106015
  4.615695   0.105312
  4.618904   0.104862
  4.622112   0.104719
  4.625321   0.104940
  4.628530   0.105579
  4.631738   0.106688
  4.634947   0.108313
  4.638155   0.110501
  4.641364   0.113294
  4.644572   0.116736
  4.647781   0.120864
  4.650989   0.125705
  4.654198   0.131271
  4.657406   0.137546
  4.660615   0.144475
  4.663824   0.151957
  4.667032   0.159843
  4.670240   0.167943
  4.673449   0.176060
  4.676658   0.184028
  4.679866   0.191750
  4.683074   0.199217
  4.686283   0.206478
  4.689492   0.213587
  4.692700   0.220534
  4.695909   0.227190
  4.699117   0.233299
  4.702326   0.238522
  4.705534   0.242525
  4.708743   0.245085
  4.711951   0.246179
  4.715160   0.246011
  4.718369   0.244982
  4.721577   0.243617
  4.724785   0.242473
  4.727994   0.242056
  4.731203   0.242770
  4.734411   0.244877
  4.737620   0.248478
  4.740828   0.253493
  4.744037   0.259653
  4.747245   0.266502
  4.750454   0.273420
  4.753662   0.279672
  4.756871   0.284488
  4.760079   0.287150
  4.763288   0.287077
  4.766497   0.283908
  4.769705   0.277557
  4.772913   0.268237
  4.776122   0.256441
  4.779330   0.242846
  4.782539   0.228191
  4.785748   0.213163
  4.788956   0.198306
  4.792165   0.184001
  4.795373   0.170474
  4.798582   0.157839
  4.801790   0.146136
  4.804999   0.135363
  4.808207   0.125502
  4.811416   0.116517
  4.814624   0.108370
  4.817833   0.101009
   4.82104    0.09438
   4.82425    0.08842
   4.82746    0.08308
   4.83067    0.07829
   4.83388    0.07399
   4.83708    0.07014
   4.84029    0.06670
   4.84350    0.06360
   4.84671    0.06084
   4.84992    0.05836
   4.85313    0.05614
   4.85634    0.05416
   4.85954    0.05240
   4.86275    0.05084
   4.86596    0.04947
   4.86917    0.04827
   4.87238    0.04724
   4.87559    0.04636
   4.87880    0.04564
   4.88200    0.04506
   4.88521    0.04464
   4.88842    0.04436
   4.89163    0.04423
   4.89484    0.04425
   4.89805    0.04443
   4.90125    0.04478
   4.90446    0.04531
   4.90767    0.04603
   4.91088    0.04696
   4.91409    0.04811
   4.91730    0.04952
   4.92051    0.05119
   4.92371    0.05317
   4.92692    0.05548
   4.93013    0.05815
   4.93334    0.06121
   4.93655    0.06466
   4.93976    0.06851
   4.94297    0.07275
   4.94617    0.07731
   4.94938    0.08209
   4.95259    0.08696
   4.95580    0.09170
   4.95901    0.09611
   4.96222    0.09998
  4.965425   0.103163
  4.968634   0.105588
  4.971842   0.107272
  4.975051   0.108299
  4.978260   0.108776
  4.981468   0.108804
  4.984676   0.108449
  4.987885   0.107741
  4.991094   0.106672
  4.994302   0.105202
  4.997510   0.103267
  5.000719   0.100799
   5.00393    0.09776
   5.00714    0.09417
   5.01034    0.09013
   5.01355    0.08576
   5.01676    0.08127
   5.01997    0.07682
   5.02318    0.07256
   5.02639    0.06862
   5.02960    0.06506
   5.03280    0.06191
   5.03601    0.05921
   5.03922    0.05694
   5.04243    0.05509
   5.04564    0.05366
   5.04885    0.05262
   5.05206    0.05198
   5.05526    0.05171
   5.05847    0.05183
   5.06168    0.05233
   5.06489    0.05323
   5.06810    0.05454
   5.07131    0.05629
   5.07452    0.05850
   5.07772    0.06120
   5.08093    0.06440
   5.08414    0.06812
   5.08735    0.07235
   5.09056    0.07705
   5.09377    0.08214
   5.09698    0.08746
   5.10018    0.09277
   5.10339    0.09775
  5.106601   0.102004
  5.109809   0.105139
  5.113018   0.106809
  5.116226   0.106810
  5.119435   0.105134
  5.122643   0.101970
   5.12585    0.09765
   5.12906    0.09259
   5.13227    0.08716
   5.13548    0.08170
   5.13869    0.07645
   5.14189    0.07157
   5.14510    0.06713
   5.14831    0.06316
   5.15152    0.05966
   5.15473    0.05658
   5.15794    0.05390
   5.16115    0.05157
   5.16435    0.04957
   5.16756    0.04789
   5.17077    0.04652
   5.17398    0.04547
   5.17719    0.04474
   5.18040    0.04433
   5.18361    0.04424
   5.18681    0.04445
   5.19002    0.04494
   5.19323    0.04567
   5.19644    0.04656
   5.19965    0.04753
   5.20286    0.04846
   5.20607    0.04921
   5.20927    0.04965
   5.21248    0.04967
   5.21569    0.04920
   5.21890    0.04821
   5.22211    0.04673
   5.22532    0.04485
   5.22853    0.04267
   5.23173    0.04031
   5.23494    0.03787
   5.23815    0.03545
   5.24136    0.03312
   5.24457    0.03093
   5.24778    0.02890
   5.25098    0.02705
   5.25419    0.02536
   5.25740    0.02385
   5.26061    0.02249
   5.26382    0.02127
   5.26703    0.02018
   5.27024    0.01920
   5.27344    0.01832
   5.27665    0.01754
   5.27986    0.01684
   5.28307    0.01621
   5.28628    0.01565
   5.28949    0.01515
   5.29270    0.01471
   5.29590    0.01432
   5.29911    0.01398
   5.30232    0.01369
   5.30553    0.01344
   5.30874    0.01323
   5.31195    0.01307
   5.31516    0.01295
   5.31836    0.01287
   5.32157    0.01284
   5.32478    0.01285
   5.32799    0.01290
   5.33120    0.01299
   5.33441    0.01313
   5.33762    0.01330
   5.34082    0.01349
   5.34403    0.01368
   5.34724    0.01386
   5.35045    0.01401
   5.35366    0.01409
   5.35687    0.01408
   5.36007    0.01398
   5.36328    0.01378
   5.36649    0.01349
   5.36970    0.01314
   5.37291    0.01275
   5.37612    0.01234
   5.37933    0.01194
   5.38253    0.01156
   5.38574    0.01120
   5.38895    0.01088
   5.39216    0.01059
   5.39537    0.01034
   5.39858    0.01013
    5.4018     0.0099
    5.4050     0.0098
    5.4082     0.0097
    5.4114     0.0096
    5.4146     0.0095
    5.4178     0.0095
    5.4210     0.0095
    5.4242     0.0095
    5.4275     0.0096
    5.4307     0.0097
    5.4339     0.0098
    5.4371     0.0100
   5.44029    0.01016
   5.44350    0.01038
   5.44670    0.01065
   5.44991    0.01097
   5.45312    0.01134
   5.45633    0.01177
   5.45954    0.01226
   5.46275    0.01281
   5.46596    0.01344
   5.46916    0.01413
   5.47237    0.01489
   5.47558    0.01571
   5.47879    0.01656
   5.48200    0.01742
   5.48521    0.01824
   5.48842    0.01899
   5.49162    0.01959
   5.49483    0.02001
   5.49804    0.02021
   5.50125    0.02020
   5.50446    0.02000
   5.50767    0.01966
   5.51088    0.01923
   5.51408    0.01877
   5.51729    0.01833
   5.52050    0.01794
   5.52371    0.01764
   5.52692    0.01744
   5.53013    0.01735
   5.53333    0.01739
   5.53654    0.01755
   5.53975    0.01785
   5.54296    0.01829
   5.54617    0.01887
   5.54938    0.01962
   5.55259    0.02052
   5.55579    0.02161
   5.55900    0.02290
   5.56221    0.02439
   5.56542    0.02611
   5.56863    0.02805
   5.57184    0.03023
   5.57505    0.03263
   5.57825    0.03521
   5.58146    0.03791
   5.58467    0.04064
   5.58788    0.04327
   5.59109    0.04562
   5.59430    0.04754
   5.59751    0.04886
   5.60071    0.04949
   5.60392    0.04939
   5.60713    0.04861
   5.61034    0.04726
   5.61355    0.04549
   5.61676    0.04345
   5.61997    0.04129
   5.62317    0.03909
   5.62638    0.03692
   5.62959    0.03477
   5.63280    0.03267
   5.63601    0.03061
   5.63922    0.02858
   5.64243    0.02661
   5.64563    0.02471
   5.64884    0.02291
   5.65205    0.02122
   5.65526    0.01965
   5.65847    0.01822
   5.66168    0.01691
   5.66489    0.01574
   5.66809    0.01468
   5.67130    0.01373
   5.67451    0.01288
   5.67772    0.01212
   5.68093    0.01143
   5.68414    0.01082
   5.68734    0.01028
    5.6906     0.0098
    5.6938     0.0093
    5.6970     0.0090
    5.7002     0.0086
    5.7034     0.0083
    5.7066     0.0080
    5.7098     0.0078
    5.7130     0.0076
    5.7162     0.0074
    5.7194     0.0073
    5.7226     0.0071
    5.7258     0.0070
    5.7291     0.0070
    5.7323     0.0070
    5.7355     0.0069
    5.7387     0.0070
    5.7419     0.0070
    5.7451     0.0070
    5.7483     0.0071
    5.7515     0.0071
    5.7547     0.0071
    5.7579     0.0071
    5.7611     0.0070
    5.7643     0.0069
    5.7676     0.0068
    5.7708     0.0065
    5.7740     0.0063
    5.7772     0.0061
    5.7804     0.0058
  5.784     0.5533E-2
  5.787     0.5285E-2
  5.790     0.5052E-2
  5.793     0.4835E-2
  5.796     0.4635E-2
  5.800     0.4452E-2
  5.803     0.4284E-2
  5.806     0.4130E-2
  5.809     0.3989E-2
  5.812     0.3860E-2
  5.816     0.3742E-2
  5.819     0.3633E-2
  5.822     0.3532E-2
  5.825     0.3439E-2
  5.829     0.3352E-2
  5.832     0.3271E-2
  5.835     0.3196E-2
  5.838     0.3125E-2
  5.841     0.3059E-2
  5.845     0.2997E-2
  5.848     0.2938E-2
  5.851     0.2882E-2
  5.854     0.2829E-2
  5.857     0.2779E-2
  5.861     0.2731E-2
  5.864     0.2685E-2
  5.867     0.2642E-2
  5.870     0.2600E-2
  5.873     0.2560E-2
  5.877     0.2522E-2
  5.880     0.2485E-2
  5.883     0.2450E-2
  5.886     0.2416E-2
  5.889     0.2383E-2
  5.893     0.2352E-2
  5.896     0.2321E-2
  5.899     0.2292E-2
  5.902     0.2263E-2
  5.906     0.2235E-2
  5.909     0.2208E-2
  5.912     0.2182E-2
  5.915     0.2157E-2
  5.918     0.2133E-2
  5.922     0.2109E-2
  5.925     0.2086E-2
  5.928     0.2063E-2
  5.931     0.2041E-2
  5.934     0.2020E-2
  5.938     0.1999E-2
  5.941     0.1978E-2
  5.944     0.1958E-2
  5.947     0.1939E-2
  5.950     0.1920E-2
  5.954     0.1902E-2
  5.957     0.1883E-2
  5.960     0.1866E-2
  5.963     0.1848E-2
  5.966     0.1831E-2
  5.970     0.1815E-2
  5.973     0.1799E-2
  5.976     0.1783E-2
  5.979     0.1767E-2
  5.983     0.1752E-2
  5.986     0.1737E-2
  5.989     0.1722E-2
  5.992     0.1708E-2
  5.995     0.1693E-2
  5.999     0.1679E-2
  6.002     0.1666E-2
  6.005     0.1652E-2
  6.008     0.1639E-2
  6.011     0.1626E-2
  6.015     0.1614E-2
  6.018     0.1601E-2
  6.021     0.1589E-2
  6.024     0.1577E-2
  6.027     0.1565E-2
  6.031     0.1553E-2
  6.034     0.1541E-2
  6.037     0.1530E-2
  6.040     0.1519E-2
  6.043     0.1508E-2
  6.047     0.1497E-2
  6.050     0.1486E-2
  6.053     0.1476E-2
  6.056     0.1466E-2
  6.060     0.1455E-2
  6.063     0.1445E-2
  6.066     0.1435E-2
  6.069     0.1426E-2
  6.072     0.1416E-2
  6.076     0.1406E-2
  6.079     0.1397E-2
  6.082     0.1388E-2
  6.085     0.1379E-2
  6.088     0.1370E-2
  6.092     0.1361E-2
  6.095     0.1352E-2
  6.098     0.1343E-2
  6.101     0.1335E-2
  6.104     0.1326E-2
  6.108     0.1318E-2
  6.111     0.1310E-2
  6.114     0.1301E-2
  6.117     0.1293E-2
  6.120     0.1285E-2
  6.124     0.1278E-2
  6.127     0.1270E-2
  6.130     0.1262E-2
  6.133     0.1255E-2
  6.137     0.1247E-2
  6.140     0.1240E-2
  6.143     0.1232E-2
  6.146     0.1225E-2
  6.149     0.1218E-2
  6.153     0.1211E-2
  6.156     0.1204E-2
  6.159     0.1197E-2
  6.162     0.1190E-2
  6.165     0.1183E-2
  6.169     0.1177E-2
  6.172     0.1170E-2
  6.175     0.1164E-2
  6.178     0.1157E-2
  6.181     0.1151E-2
  6.185     0.1144E-2
  6.188     0.1138E-2
  6.191     0.1132E-2
  6.194     0.1126E-2
  6.198     0.1120E-2
  6.201     0.1114E-2
  6.204     0.1108E-2
  6.207     0.1102E-2
  6.210     0.1096E-2
  6.214     0.1090E-2
  6.217     0.1084E-2
  6.220     0.1079E-2
  6.223     0.1073E-2
  6.226     0.1067E-2
  6.230     0.1062E-2
  6.233     0.1056E-2
  6.236     0.1051E-2
  6.239     0.1046E-2
  6.242     0.1040E-2
  6.246     0.1035E-2
  6.249     0.1030E-2
  6.252     0.1025E-2
  6.255     0.1019E-2
  6.258     0.1014E-2
# 
# 04/27/2021 at 16:16 YPP @ lux-1 [start]
# 04/27/2021 at 16:16             [end]
#  
# Timing   [Min/Max/Average]: 03s/03s/03s
#
# .-Input file : amp.in
# | excitons                     # [R] Excitons
# | amplitude                    # [R] Amplitude
# | BoseTemp= 0.000000     eV    # Bosonic Temperature
# | States= "1 - 9"              # Index of the BS state(s)
# | #DipWeight                   #  Weight the contribution to the exciton WFs with the dipoles
# | Degen_Step=0.1000E-4   eV    # Maximum energy separation of two degenerate states
