#                                                           
#  __  __   ________   ___ __ __    _______   ______        
# /_/\/_/\ /_______/\ /__//_//_/\ /_______/\ /_____/\       
# \ \ \ \ \\::: _  \ \\::\| \| \ \\::: _  \ \\:::_ \ \      
#  \:\_\ \ \\::(_)  \ \\:.      \ \\::(_)  \/_\:\ \ \ \     
#   \::::_\/ \:: __  \ \\:.\-/\  \ \\::  _  \ \\:\ \ \ \    
#     \::\ \  \:.\ \  \ \\. \  \  \ \\::(_)  \ \\:\_\ \ \   
#      \__\/   \__\/\__\/ \__\/ \__\/ \_______\/ \_____\/   
#                                                           
#                                                           
#              GPL Version 4.1.4 Revision 76                
#                        MPI Build                          
#                http://www.yambo-code.org                  
#
# BSK|Identifier              :2467
#    |Dimension               :14580
#    |Bands                   :100 - 180
#    |Exchange           [res]: yes
#    |Correlation        [res]: yes
#    |Kernel`s coupling       : no
#    |Exchange           [cpl]: no
#    |Correlation        [cpl]: no
#    |W interaction is bare   : no
#    |ALDA kernel in R-space  : no
#    |RL vectors    [exchange]:27983
#    |RL vectors [correlation]:4011
#    |E/h energy range    [ev]:-1.000000 - -1.000000
#    |Coupling range     [o/o]: 100.0000 -  100.0000
#  W |Interaction is diagonal : no
#    |Matrix size             :8049
#    |Bands                   :1 - 1800
#    |e/h energy range    [ev]:-1.000000 - -1.000000
#    |Poles              [o/o]: 100.0000
#    |RL vectors in the sum   :27983
#    |[r,Vnl] included        : yes
#    |Field direction         :0.1000E-4  0.000000  0.000000
#    |Coulomb Cutoff          :box z
#    |xc-Kernel               :none
# RIM|RL components      [col]:0
#    |Random points      [col]:0
#
# Electron-Hole pairs that contributes to Excitonic State 6 more than 5%
#
#  E    [eV]  Amplitude
#  
  3.103     0.1512E-2
  3.106     0.1521E-2
  3.109     0.1530E-2
  3.112     0.1539E-2
  3.115     0.1548E-2
  3.118     0.1557E-2
  3.121     0.1566E-2
  3.125     0.1576E-2
  3.128     0.1585E-2
  3.131     0.1595E-2
  3.134     0.1605E-2
  3.137     0.1614E-2
  3.140     0.1624E-2
  3.143     0.1634E-2
  3.146     0.1644E-2
  3.149     0.1654E-2
  3.152     0.1665E-2
  3.155     0.1675E-2
  3.158     0.1685E-2
  3.161     0.1696E-2
  3.164     0.1707E-2
  3.168     0.1717E-2
  3.171     0.1728E-2
  3.174     0.1739E-2
  3.177     0.1751E-2
  3.180     0.1762E-2
  3.183     0.1773E-2
  3.186     0.1785E-2
  3.189     0.1796E-2
  3.192     0.1808E-2
  3.195     0.1820E-2
  3.198     0.1832E-2
  3.201     0.1844E-2
  3.204     0.1856E-2
  3.207     0.1868E-2
  3.210     0.1881E-2
  3.214     0.1894E-2
  3.217     0.1906E-2
  3.220     0.1919E-2
  3.223     0.1933E-2
  3.226     0.1946E-2
  3.229     0.1959E-2
  3.232     0.1973E-2
  3.235     0.1986E-2
  3.238     0.2000E-2
  3.241     0.2014E-2
  3.244     0.2028E-2
  3.247     0.2043E-2
  3.250     0.2057E-2
  3.253     0.2072E-2
  3.256     0.2087E-2
  3.260     0.2102E-2
  3.263     0.2117E-2
  3.266     0.2133E-2
  3.269     0.2148E-2
  3.272     0.2164E-2
  3.275     0.2180E-2
  3.278     0.2197E-2
  3.281     0.2213E-2
  3.284     0.2230E-2
  3.287     0.2247E-2
  3.290     0.2264E-2
  3.293     0.2281E-2
  3.296     0.2299E-2
  3.299     0.2317E-2
  3.302     0.2335E-2
  3.306     0.2353E-2
  3.309     0.2372E-2
  3.312     0.2391E-2
  3.315     0.2410E-2
  3.318     0.2429E-2
  3.321     0.2449E-2
  3.324     0.2469E-2
  3.327     0.2489E-2
  3.330     0.2510E-2
  3.333     0.2531E-2
  3.336     0.2552E-2
  3.339     0.2574E-2
  3.342     0.2596E-2
  3.345     0.2618E-2
  3.348     0.2641E-2
  3.352     0.2664E-2
  3.355     0.2688E-2
  3.358     0.2712E-2
  3.361     0.2736E-2
  3.364     0.2761E-2
  3.367     0.2786E-2
  3.370     0.2812E-2
  3.373     0.2838E-2
  3.376     0.2864E-2
  3.379     0.2891E-2
  3.382     0.2919E-2
  3.385     0.2947E-2
  3.388     0.2976E-2
  3.391     0.3006E-2
  3.394     0.3036E-2
  3.398     0.3066E-2
  3.401     0.3098E-2
  3.404     0.3130E-2
  3.407     0.3162E-2
  3.410     0.3196E-2
  3.413     0.3230E-2
  3.416     0.3266E-2
  3.419     0.3302E-2
  3.422     0.3339E-2
  3.425     0.3377E-2
  3.428     0.3415E-2
    3.4313     0.0035
    3.4344     0.0035
    3.4374     0.0035
    3.4405     0.0036
    3.4436     0.0036
    3.4466     0.0037
    3.4497     0.0037
    3.4528     0.0038
    3.4558     0.0038
    3.4589     0.0039
    3.4620     0.0039
    3.4650     0.0040
    3.4681     0.0040
    3.4712     0.0041
    3.4743     0.0042
    3.4773     0.0042
    3.4804     0.0043
    3.4835     0.0044
    3.4865     0.0045
    3.4896     0.0045
    3.4927     0.0046
    3.4957     0.0047
    3.4988     0.0048
    3.5019     0.0049
    3.5049     0.0050
    3.5080     0.0051
    3.5111     0.0053
    3.5141     0.0054
    3.5172     0.0055
    3.5203     0.0057
    3.5233     0.0058
    3.5264     0.0060
    3.5295     0.0062
    3.5325     0.0064
    3.5356     0.0066
    3.5387     0.0069
    3.5417     0.0071
    3.5448     0.0074
    3.5479     0.0077
    3.5509     0.0081
    3.5540     0.0085
    3.5571     0.0089
    3.5601     0.0094
    3.5632     0.0100
   3.56627    0.01060
   3.56934    0.01129
   3.57241    0.01204
   3.57548    0.01288
   3.57854    0.01378
   3.58161    0.01475
   3.58468    0.01576
   3.58775    0.01677
   3.59081    0.01775
   3.59388    0.01863
   3.59695    0.01935
   3.60002    0.01983
   3.60308    0.02004
   3.60615    0.01994
   3.60922    0.01958
   3.61228    0.01898
   3.61535    0.01821
   3.61842    0.01734
   3.62149    0.01644
   3.62455    0.01554
   3.62762    0.01469
   3.63069    0.01390
   3.63376    0.01318
   3.63682    0.01254
   3.63989    0.01197
   3.64296    0.01147
   3.64603    0.01104
   3.64909    0.01066
   3.65216    0.01033
   3.65523    0.01005
    3.6583     0.0098
    3.6614     0.0096
    3.6644     0.0094
    3.6675     0.0093
    3.6706     0.0092
    3.6736     0.0091
    3.6767     0.0090
    3.6798     0.0089
    3.6828     0.0089
    3.6859     0.0089
    3.6890     0.0088
    3.6920     0.0088
    3.6951     0.0088
    3.6982     0.0089
    3.7012     0.0089
    3.7043     0.0089
    3.7074     0.0090
    3.7104     0.0090
    3.7135     0.0091
    3.7166     0.0091
    3.7196     0.0092
    3.7227     0.0093
    3.7258     0.0093
    3.7288     0.0094
    3.7319     0.0095
    3.7350     0.0096
    3.7380     0.0097
    3.7411     0.0098
    3.7442     0.0099
   3.74725    0.01006
   3.75032    0.01019
   3.75339    0.01032
   3.75645    0.01045
   3.75952    0.01059
   3.76259    0.01074
   3.76566    0.01089
   3.76872    0.01105
   3.77179    0.01121
   3.77486    0.01138
   3.77792    0.01155
   3.78099    0.01173
   3.78406    0.01192
   3.78713    0.01211
   3.79019    0.01231
   3.79326    0.01252
   3.79633    0.01273
   3.79940    0.01296
   3.80246    0.01318
   3.80553    0.01342
   3.80860    0.01367
   3.81167    0.01392
   3.81473    0.01418
   3.81780    0.01445
   3.82087    0.01474
   3.82394    0.01503
   3.82700    0.01533
   3.83007    0.01564
   3.83314    0.01597
   3.83621    0.01630
   3.83927    0.01665
   3.84234    0.01701
   3.84541    0.01739
   3.84847    0.01778
   3.85154    0.01819
   3.85461    0.01861
   3.85768    0.01905
   3.86074    0.01951
   3.86381    0.01999
   3.86688    0.02048
   3.86995    0.02100
   3.87301    0.02154
   3.87608    0.02211
   3.87915    0.02270
   3.88222    0.02332
   3.88528    0.02396
   3.88835    0.02464
   3.89142    0.02535
   3.89449    0.02610
   3.89755    0.02688
   3.90062    0.02771
   3.90369    0.02857
   3.90676    0.02949
   3.90982    0.03045
   3.91289    0.03147
   3.91596    0.03255
   3.91902    0.03369
   3.92209    0.03490
   3.92516    0.03618
   3.92823    0.03754
   3.93129    0.03899
   3.93436    0.04054
   3.93743    0.04219
   3.94050    0.04396
   3.94356    0.04585
   3.94663    0.04789
   3.94970    0.05007
   3.95277    0.05243
   3.95583    0.05497
   3.95890    0.05772
   3.96197    0.06071
   3.96504    0.06395
   3.96810    0.06748
   3.97117    0.07134
   3.97424    0.07557
   3.97731    0.08021
   3.98037    0.08532
   3.98344    0.09095
   3.98651    0.09719
  3.989576   0.104104
  3.992643   0.111796
  3.995710   0.120369
  3.998778   0.129943
  4.001845   0.140652
  4.004912   0.152639
  4.007980   0.166062
  4.011047   0.181073
  4.014115   0.197814
  4.017182   0.216390
  4.020250   0.236839
  4.023317   0.259076
  4.026385   0.282845
  4.029452   0.307615
  4.032519   0.332552
  4.035587   0.356448
  4.038654   0.377789
  4.041722   0.394904
  4.044789   0.406252
  4.047856   0.410759
  4.050924   0.408094
  4.053991   0.398767
  4.057058   0.383986
  4.060126   0.365361
  4.063193   0.344565
  4.066260   0.323078
  4.069328   0.302039
  4.072395   0.282251
  4.075463   0.264187
  4.078530   0.248092
  4.081598   0.234041
  4.084665   0.222004
  4.087733   0.211892
  4.090800   0.203590
  4.093867   0.196972
  4.096935   0.191924
  4.100002   0.188342
  4.103070   0.186141
  4.106137   0.185256
  4.109204   0.185640
  4.112272   0.187269
  4.115339   0.190140
  4.118407   0.194267
  4.121474   0.199690
  4.124542   0.206469
  4.127609   0.214688
  4.130676   0.224455
  4.133744   0.235906
  4.136811   0.249209
  4.139878   0.264558
  4.142946   0.282185
  4.146013   0.302355
  4.149081   0.325368
  4.152148   0.351550
  4.155215   0.381259
  4.158283   0.414845
  4.161350   0.452635
  4.164418   0.494876
  4.167485   0.541669
  4.170553   0.592867
  4.173620   0.647960
  4.176687   0.705937
  4.179755   0.765224
  4.182822   0.823602
  4.185890   0.878317
  4.188957   0.926271
  4.192025   0.964316
  4.195092   0.989611
  4.198159   1.000000
  4.201227   0.994360
  4.204294   0.972887
  4.207362   0.937176
  4.210429   0.889997
  4.213496   0.834812
  4.216564   0.775194
  4.219631   0.714310
  4.222698   0.654669
  4.225766   0.598022
  4.228833   0.545433
  4.231901   0.497424
  4.234968   0.454128
  4.238035   0.415428
  4.241103   0.381046
  4.244170   0.350646
  4.247238   0.323861
  4.250305   0.300334
  4.253373   0.279732
  4.256440   0.261754
  4.259507   0.246141
  4.262575   0.232662
  4.265642   0.221129
  4.268710   0.211384
  4.271777   0.203296
  4.274845   0.196758
  4.277912   0.191677
  4.280979   0.187971
  4.284047   0.185551
  4.287114   0.184311
  4.290182   0.184108
  4.293249   0.184741
  4.296316   0.185928
  4.299384   0.187304
  4.302451   0.188425
  4.305518   0.188815
  4.308586   0.188037
  4.311653   0.185780
  4.314721   0.181932
  4.317788   0.176597
  4.320856   0.170058
  4.323923   0.162690
  4.326990   0.154877
  4.330058   0.146942
  4.333125   0.139123
  4.336193   0.131578
  4.339260   0.124400
  4.342328   0.117644
  4.345395   0.111344
  4.348462   0.105521
  4.351530   0.100184
   4.35460    0.09534
   4.35766    0.09096
   4.36073    0.08705
   4.36380    0.08358
   4.36687    0.08052
   4.36993    0.07785
   4.37300    0.07553
   4.37607    0.07355
   4.37914    0.07188
   4.38220    0.07051
   4.38527    0.06942
   4.38834    0.06861
   4.39141    0.06807
   4.39447    0.06779
   4.39754    0.06778
   4.40061    0.06804
   4.40368    0.06858
   4.40674    0.06942
   4.40981    0.07057
   4.41288    0.07205
   4.41595    0.07390
   4.41901    0.07615
   4.42208    0.07884
   4.42515    0.08202
   4.42822    0.08574
   4.43128    0.09006
   4.43435    0.09505
  4.437417   0.100778
  4.440485   0.107313
  4.443552   0.114713
  4.446620   0.123015
  4.449687   0.132216
  4.452754   0.142249
  4.455822   0.152948
  4.458889   0.164016
  4.461956   0.174994
  4.465024   0.185266
  4.468091   0.194091
  4.471159   0.200707
  4.474226   0.204472
  4.477293   0.205024
  4.480361   0.202374
  4.483428   0.196909
  4.486495   0.189290
  4.489563   0.180302
  4.492630   0.170705
  4.495697   0.161134
  4.498765   0.152069
  4.501832   0.143834
  4.504900   0.136623
  4.507967   0.130536
  4.511035   0.125615
  4.514102   0.121863
  4.517169   0.119269
  4.520237   0.117811
  4.523304   0.117470
  4.526372   0.118229
  4.529439   0.120066
  4.532507   0.122949
  4.535574   0.126826
  4.538641   0.131606
  4.541709   0.137140
  4.544776   0.143205
  4.547843   0.149499
  4.550911   0.155644
  4.553978   0.161227
  4.557045   0.165858
  4.560113   0.169225
  4.563180   0.171139
  4.566248   0.171529
  4.569315   0.170404
  4.572383   0.167808
  4.575450   0.163799
  4.578517   0.158465
  4.581585   0.151954
  4.584652   0.144496
  4.587720   0.136398
  4.590787   0.127997
  4.593855   0.119619
  4.596922   0.111533
  4.599989   0.103940
   4.60306    0.09696
   4.60612    0.09067
   4.60919    0.08507
   4.61226    0.08016
   4.61533    0.07592
   4.61839    0.07230
   4.62146    0.06926
   4.62453    0.06677
   4.62760    0.06480
   4.63066    0.06330
   4.63373    0.06224
   4.63680    0.06159
   4.63987    0.06130
   4.64293    0.06133
   4.64600    0.06161
   4.64907    0.06205
   4.65214    0.06257
   4.65520    0.06307
   4.65827    0.06348
   4.66134    0.06377
   4.66440    0.06394
   4.66747    0.06404
   4.67054    0.06418
   4.67361    0.06445
   4.67667    0.06497
   4.67974    0.06580
   4.68281    0.06701
   4.68588    0.06860
   4.68894    0.07053
   4.69201    0.07271
   4.69508    0.07499
   4.69815    0.07715
   4.70121    0.07894
   4.70428    0.08007
   4.70735    0.08032
   4.71042    0.07954
   4.71348    0.07772
   4.71655    0.07496
   4.71962    0.07148
   4.72269    0.06753
   4.72575    0.06336
   4.72882    0.05919
   4.73189    0.05516
   4.73496    0.05139
   4.73802    0.04793
   4.74109    0.04480
   4.74416    0.04201
   4.74722    0.03954
   4.75029    0.03738
   4.75336    0.03549
   4.75643    0.03385
   4.75949    0.03243
   4.76256    0.03119
   4.76563    0.03011
   4.76870    0.02914
   4.77176    0.02824
   4.77483    0.02738
   4.77790    0.02653
   4.78097    0.02568
   4.78403    0.02481
   4.78710    0.02393
   4.79017    0.02306
   4.79324    0.02222
   4.79630    0.02142
   4.79937    0.02067
   4.80244    0.01998
   4.80551    0.01936
   4.80857    0.01880
   4.81164    0.01832
   4.81471    0.01790
   4.81778    0.01755
   4.82084    0.01727
   4.82391    0.01705
   4.82698    0.01689
   4.83005    0.01680
   4.83311    0.01677
   4.83618    0.01680
   4.83925    0.01690
   4.84231    0.01707
   4.84538    0.01729
   4.84845    0.01757
   4.85152    0.01789
   4.85458    0.01824
   4.85765    0.01859
   4.86072    0.01892
   4.86379    0.01920
   4.86685    0.01942
   4.86992    0.01954
   4.87299    0.01958
   4.87606    0.01953
   4.87912    0.01942
   4.88219    0.01925
   4.88526    0.01904
   4.88833    0.01879
   4.89139    0.01851
   4.89446    0.01819
   4.89753    0.01785
   4.90060    0.01749
   4.90366    0.01714
   4.90673    0.01681
   4.90980    0.01651
   4.91286    0.01626
   4.91593    0.01607
   4.91900    0.01596
   4.92207    0.01591
   4.92513    0.01595
   4.92820    0.01606
   4.93127    0.01626
   4.93434    0.01655
   4.93740    0.01693
   4.94047    0.01740
   4.94354    0.01798
   4.94661    0.01866
   4.94967    0.01945
   4.95274    0.02035
   4.95581    0.02136
   4.95888    0.02248
   4.96194    0.02370
   4.96501    0.02502
   4.96808    0.02644
   4.97115    0.02796
   4.97421    0.02959
   4.97728    0.03134
   4.98035    0.03320
   4.98342    0.03515
   4.98648    0.03713
   4.98955    0.03906
   4.99262    0.04081
   4.99569    0.04222
   4.99875    0.04316
   5.00182    0.04351
   5.00489    0.04320
   5.00795    0.04226
   5.01102    0.04079
   5.01409    0.03894
   5.01716    0.03685
   5.02022    0.03468
   5.02329    0.03254
   5.02636    0.03053
   5.02943    0.02869
   5.03249    0.02704
   5.03556    0.02560
   5.03863    0.02434
   5.04170    0.02326
   5.04476    0.02232
   5.04783    0.02148
   5.05090    0.02071
   5.05397    0.01998
   5.05703    0.01927
   5.06010    0.01855
   5.06317    0.01783
   5.06624    0.01712
   5.06930    0.01643
   5.07237    0.01578
   5.07544    0.01518
   5.07851    0.01465
   5.08157    0.01418
   5.08464    0.01378
   5.08771    0.01345
   5.09077    0.01320
   5.09384    0.01302
   5.09691    0.01292
   5.09998    0.01289
   5.10304    0.01293
   5.10611    0.01304
   5.10918    0.01324
   5.11225    0.01350
   5.11531    0.01385
   5.11838    0.01427
   5.12145    0.01475
   5.12452    0.01529
   5.12758    0.01586
   5.13065    0.01643
   5.13372    0.01696
   5.13679    0.01741
   5.13985    0.01774
   5.14292    0.01791
   5.14599    0.01792
   5.14906    0.01776
   5.15212    0.01748
   5.15519    0.01712
   5.15826    0.01672
   5.16132    0.01634
   5.16439    0.01599
   5.16746    0.01572
   5.17053    0.01554
   5.17359    0.01547
   5.17666    0.01551
   5.17973    0.01567
   5.18280    0.01595
   5.18586    0.01636
   5.18893    0.01689
   5.19200    0.01753
   5.19507    0.01827
   5.19813    0.01909
   5.20120    0.01995
   5.20427    0.02079
   5.20734    0.02157
   5.21040    0.02221
   5.21347    0.02267
   5.21654    0.02291
   5.21961    0.02293
   5.22267    0.02275
   5.22574    0.02244
   5.22881    0.02205
   5.23188    0.02165
   5.23494    0.02130
   5.23801    0.02103
   5.24108    0.02086
   5.24414    0.02079
   5.24721    0.02080
   5.25028    0.02085
   5.25335    0.02089
   5.25641    0.02086
   5.25948    0.02071
   5.26255    0.02039
   5.26562    0.01990
   5.26868    0.01923
   5.27175    0.01843
   5.27482    0.01754
   5.27789    0.01662
   5.28095    0.01572
   5.28402    0.01486
   5.28709    0.01406
   5.29016    0.01336
   5.29322    0.01275
   5.29629    0.01223
   5.29936    0.01181
   5.30243    0.01148
   5.30549    0.01124
   5.30856    0.01109
   5.31163    0.01101
   5.31469    0.01099
   5.31776    0.01103
   5.32083    0.01111
   5.32390    0.01121
   5.32696    0.01129
   5.33003    0.01133
   5.33310    0.01130
   5.33617    0.01117
   5.33923    0.01094
   5.34230    0.01061
   5.34537    0.01020
    5.3484     0.0097
    5.3515     0.0092
    5.3546     0.0087
    5.3576     0.0082
    5.3607     0.0078
    5.3638     0.0073
    5.3668     0.0069
    5.3699     0.0065
    5.3730     0.0062
    5.3760     0.0059
    5.3791     0.0056
  5.382     0.5360E-2
  5.385     0.5136E-2
  5.388     0.4934E-2
  5.391     0.4751E-2
  5.394     0.4586E-2
  5.398     0.4435E-2
  5.401     0.4299E-2
  5.404     0.4174E-2
  5.407     0.4060E-2
  5.410     0.3956E-2
  5.413     0.3861E-2
  5.416     0.3774E-2
  5.419     0.3694E-2
  5.422     0.3620E-2
  5.425     0.3553E-2
  5.428     0.3491E-2
  5.431     0.3434E-2
  5.434     0.3382E-2
  5.437     0.3334E-2
  5.440     0.3291E-2
  5.444     0.3251E-2
  5.447     0.3215E-2
  5.450     0.3183E-2
  5.453     0.3154E-2
  5.456     0.3129E-2
  5.459     0.3107E-2
  5.462     0.3088E-2
  5.465     0.3073E-2
  5.468     0.3061E-2
  5.471     0.3051E-2
  5.474     0.3046E-2
  5.477     0.3043E-2
  5.480     0.3044E-2
  5.483     0.3048E-2
  5.486     0.3057E-2
  5.490     0.3069E-2
  5.493     0.3085E-2
  5.496     0.3105E-2
  5.499     0.3130E-2
  5.502     0.3161E-2
  5.505     0.3196E-2
  5.508     0.3238E-2
  5.511     0.3286E-2
  5.514     0.3340E-2
  5.517     0.3403E-2
  5.520     0.3475E-2
  5.523     0.3556E-2
  5.526     0.3647E-2
  5.529     0.3751E-2
  5.532     0.3868E-2
  5.536     0.4001E-2
  5.539     0.4151E-2
  5.542     0.4320E-2
  5.545     0.4511E-2
  5.548     0.4727E-2
  5.551     0.4971E-2
  5.554     0.5247E-2
    5.5570     0.0056
    5.5601     0.0059
    5.5632     0.0063
    5.5662     0.0067
    5.5693     0.0072
    5.5724     0.0077
    5.5754     0.0083
    5.5785     0.0089
    5.5816     0.0095
   5.58463    0.01006
   5.58769    0.01057
   5.59076    0.01098
   5.59383    0.01126
   5.59690    0.01139
   5.59996    0.01135
   5.60303    0.01118
   5.60610    0.01089
   5.60917    0.01054
   5.61223    0.01015
    5.6153     0.0098
    5.6184     0.0094
    5.6214     0.0091
    5.6245     0.0089
    5.6276     0.0087
    5.6306     0.0086
    5.6337     0.0086
    5.6368     0.0087
    5.6398     0.0088
    5.6429     0.0091
    5.6460     0.0094
    5.6490     0.0097
   5.65211    0.01016
   5.65518    0.01060
   5.65824    0.01103
   5.66131    0.01141
   5.66438    0.01170
   5.66745    0.01186
   5.67051    0.01185
   5.67358    0.01166
   5.67665    0.01131
   5.67972    0.01082
   5.68278    0.01024
    5.6859     0.0096
    5.6889     0.0089
    5.6920     0.0083
    5.6951     0.0076
    5.6981     0.0071
    5.7012     0.0065
    5.7043     0.0060
  5.707     0.5600E-2
  5.710     0.5207E-2
  5.713     0.4856E-2
  5.717     0.4541E-2
  5.720     0.4260E-2
  5.723     0.4008E-2
  5.726     0.3782E-2
  5.729     0.3579E-2
  5.732     0.3395E-2
  5.735     0.3230E-2
  5.738     0.3080E-2
  5.741     0.2944E-2
  5.744     0.2820E-2
  5.747     0.2707E-2
  5.750     0.2603E-2
  5.753     0.2508E-2
  5.756     0.2420E-2
  5.759     0.2339E-2
  5.763     0.2265E-2
  5.766     0.2195E-2
  5.769     0.2131E-2
  5.772     0.2071E-2
  5.775     0.2015E-2
  5.778     0.1963E-2
  5.781     0.1914E-2
  5.784     0.1868E-2
  5.787     0.1824E-2
  5.790     0.1784E-2
  5.793     0.1745E-2
  5.796     0.1709E-2
  5.799     0.1674E-2
  5.802     0.1642E-2
  5.805     0.1611E-2
  5.809     0.1582E-2
  5.812     0.1554E-2
  5.815     0.1527E-2
  5.818     0.1502E-2
  5.821     0.1477E-2
  5.824     0.1454E-2
  5.827     0.1432E-2
  5.830     0.1411E-2
  5.833     0.1390E-2
  5.836     0.1371E-2
  5.839     0.1352E-2
  5.842     0.1334E-2
  5.845     0.1316E-2
  5.848     0.1300E-2
  5.851     0.1283E-2
  5.855     0.1268E-2
  5.858     0.1253E-2
  5.861     0.1238E-2
  5.864     0.1224E-2
  5.867     0.1210E-2
  5.870     0.1197E-2
  5.873     0.1184E-2
  5.876     0.1171E-2
  5.879     0.1159E-2
  5.882     0.1147E-2
  5.885     0.1136E-2
  5.888     0.1125E-2
  5.891     0.1114E-2
  5.894     0.1103E-2
  5.898     0.1093E-2
  5.901     0.1083E-2
  5.904     0.1073E-2
  5.907     0.1064E-2
  5.910     0.1055E-2
  5.913     0.1046E-2
  5.916     0.1037E-2
  5.919     0.1028E-2
  5.922     0.1020E-2
  5.925     0.1011E-2
  5.928     0.1003E-2
  5.931     0.9952E-3
  5.934     0.9874E-3
  5.937     0.9798E-3
  5.940     0.9724E-3
  5.944     0.9651E-3
  5.947     0.9579E-3
  5.950     0.9509E-3
  5.953     0.9440E-3
  5.956     0.9372E-3
  5.959     0.9306E-3
  5.962     0.9240E-3
  5.965     0.9176E-3
  5.968     0.9113E-3
  5.971     0.9051E-3
  5.974     0.8991E-3
  5.977     0.8931E-3
  5.980     0.8872E-3
  5.983     0.8814E-3
  5.986     0.8757E-3
  5.990     0.8701E-3
  5.993     0.8646E-3
  5.996     0.8592E-3
  5.999     0.8538E-3
  6.002     0.8486E-3
  6.005     0.8434E-3
  6.008     0.8383E-3
  6.011     0.8332E-3
  6.014     0.8283E-3
  6.017     0.8234E-3
  6.020     0.8185E-3
  6.023     0.8138E-3
  6.026     0.8091E-3
  6.029     0.8044E-3
  6.032     0.7999E-3
  6.036     0.7954E-3
  6.039     0.7909E-3
  6.042     0.7865E-3
  6.045     0.7822E-3
  6.048     0.7779E-3
  6.051     0.7736E-3
  6.054     0.7695E-3
  6.057     0.7653E-3
  6.060     0.7612E-3
  6.063     0.7572E-3
  6.066     0.7532E-3
  6.069     0.7493E-3
  6.072     0.7454E-3
  6.075     0.7415E-3
  6.078     0.7377E-3
  6.082     0.7340E-3
  6.085     0.7302E-3
  6.088     0.7265E-3
  6.091     0.7229E-3
  6.094     0.7193E-3
  6.097     0.7157E-3
  6.100     0.7122E-3
  6.103     0.7087E-3
  6.106     0.7053E-3
  6.109     0.7018E-3
  6.112     0.6985E-3
  6.115     0.6951E-3
  6.118     0.6918E-3
  6.121     0.6885E-3
  6.124     0.6852E-3
  6.128     0.6820E-3
  6.131     0.6788E-3
  6.134     0.6757E-3
  6.137     0.6726E-3
  6.140     0.6695E-3
  6.143     0.6664E-3
  6.146     0.6633E-3
  6.149     0.6603E-3
  6.152     0.6573E-3
  6.155     0.6544E-3
  6.158     0.6515E-3
  6.161     0.6485E-3
  6.164     0.6457E-3
  6.167     0.6428E-3
# 
# 04/27/2021 at 16:16 YPP @ lux-1 [start]
# 04/27/2021 at 16:16             [end]
#  
# Timing   [Min/Max/Average]: 03s/03s/03s
#
# .-Input file : amp.in
# | excitons                     # [R] Excitons
# | amplitude                    # [R] Amplitude
# | BoseTemp= 0.000000     eV    # Bosonic Temperature
# | States= "1 - 9"              # Index of the BS state(s)
# | #DipWeight                   #  Weight the contribution to the exciton WFs with the dipoles
# | Degen_Step=0.1000E-4   eV    # Maximum energy separation of two degenerate states
