#                                                           
#  __  __   ________   ___ __ __    _______   ______        
# /_/\/_/\ /_______/\ /__//_//_/\ /_______/\ /_____/\       
# \ \ \ \ \\::: _  \ \\::\| \| \ \\::: _  \ \\:::_ \ \      
#  \:\_\ \ \\::(_)  \ \\:.      \ \\::(_)  \/_\:\ \ \ \     
#   \::::_\/ \:: __  \ \\:.\-/\  \ \\::  _  \ \\:\ \ \ \    
#     \::\ \  \:.\ \  \ \\. \  \  \ \\::(_)  \ \\:\_\ \ \   
#      \__\/   \__\/\__\/ \__\/ \__\/ \_______\/ \_____\/   
#                                                           
#                                                           
#              GPL Version 4.1.4 Revision 76                
#                        MPI Build                          
#                http://www.yambo-code.org                  
#
# BSK|Identifier              :2467
#    |Dimension               :14580
#    |Bands                   :100 - 180
#    |Exchange           [res]: yes
#    |Correlation        [res]: yes
#    |Kernel`s coupling       : no
#    |Exchange           [cpl]: no
#    |Correlation        [cpl]: no
#    |W interaction is bare   : no
#    |ALDA kernel in R-space  : no
#    |RL vectors    [exchange]:27983
#    |RL vectors [correlation]:4011
#    |E/h energy range    [ev]:-1.000000 - -1.000000
#    |Coupling range     [o/o]: 100.0000 -  100.0000
#  W |Interaction is diagonal : no
#    |Matrix size             :8049
#    |Bands                   :1 - 1800
#    |e/h energy range    [ev]:-1.000000 - -1.000000
#    |Poles              [o/o]: 100.0000
#    |RL vectors in the sum   :27983
#    |[r,Vnl] included        : yes
#    |Field direction         :0.1000E-4  0.000000  0.000000
#    |Coulomb Cutoff          :box z
#    |xc-Kernel               :none
# RIM|RL components      [col]:0
#    |Random points      [col]:0
#
# Electron-Hole pairs that contributes to Excitonic State 3 more than 5%
#
#  E    [eV]  Amplitude
#  
  3.548     0.2428E-2
  3.550     0.2446E-2
  3.553     0.2463E-2
  3.556     0.2481E-2
  3.559     0.2499E-2
  3.562     0.2517E-2
  3.565     0.2535E-2
  3.568     0.2553E-2
  3.571     0.2572E-2
  3.574     0.2591E-2
  3.577     0.2610E-2
  3.579     0.2629E-2
  3.582     0.2649E-2
  3.585     0.2669E-2
  3.588     0.2689E-2
  3.591     0.2709E-2
  3.594     0.2729E-2
  3.597     0.2750E-2
  3.600     0.2771E-2
  3.603     0.2792E-2
  3.606     0.2814E-2
  3.608     0.2835E-2
  3.611     0.2857E-2
  3.614     0.2880E-2
  3.617     0.2902E-2
  3.620     0.2925E-2
  3.623     0.2948E-2
  3.626     0.2971E-2
  3.629     0.2995E-2
  3.632     0.3019E-2
  3.634     0.3043E-2
  3.637     0.3068E-2
  3.640     0.3093E-2
  3.643     0.3118E-2
  3.646     0.3143E-2
  3.649     0.3169E-2
  3.652     0.3195E-2
  3.655     0.3222E-2
  3.658     0.3249E-2
  3.661     0.3276E-2
  3.663     0.3303E-2
  3.666     0.3331E-2
  3.669     0.3359E-2
  3.672     0.3388E-2
  3.675     0.3417E-2
  3.678     0.3447E-2
  3.681     0.3476E-2
  3.684     0.3507E-2
  3.687     0.3537E-2
  3.690     0.3568E-2
  3.692     0.3600E-2
  3.695     0.3632E-2
  3.698     0.3664E-2
  3.701     0.3697E-2
    3.7041     0.0037
    3.7070     0.0038
    3.7099     0.0038
    3.7127     0.0038
    3.7156     0.0039
    3.7185     0.0039
    3.7214     0.0039
    3.7243     0.0040
    3.7272     0.0040
    3.7301     0.0041
    3.7330     0.0041
    3.7359     0.0041
    3.7388     0.0042
    3.7417     0.0042
    3.7446     0.0043
    3.7475     0.0043
    3.7504     0.0043
    3.7533     0.0044
    3.7562     0.0044
    3.7591     0.0045
    3.7620     0.0045
    3.7649     0.0046
    3.7678     0.0046
    3.7707     0.0046
    3.7736     0.0047
    3.7765     0.0047
    3.7794     0.0048
    3.7823     0.0048
    3.7852     0.0049
    3.7881     0.0049
    3.7910     0.0050
    3.7939     0.0051
    3.7968     0.0051
    3.7997     0.0052
    3.8026     0.0052
    3.8055     0.0053
    3.8084     0.0053
    3.8113     0.0054
    3.8142     0.0055
    3.8171     0.0055
    3.8200     0.0056
    3.8229     0.0056
    3.8258     0.0057
    3.8287     0.0058
    3.8316     0.0059
    3.8345     0.0059
    3.8374     0.0060
    3.8403     0.0061
    3.8432     0.0061
    3.8461     0.0062
    3.8490     0.0063
    3.8519     0.0064
    3.8548     0.0064
    3.8577     0.0065
    3.8606     0.0066
    3.8635     0.0067
    3.8664     0.0068
    3.8693     0.0069
    3.8722     0.0070
    3.8751     0.0071
    3.8780     0.0071
    3.8809     0.0072
    3.8837     0.0073
    3.8866     0.0074
    3.8895     0.0075
    3.8924     0.0077
    3.8953     0.0078
    3.8982     0.0079
    3.9011     0.0080
    3.9040     0.0081
    3.9069     0.0082
    3.9098     0.0084
    3.9127     0.0085
    3.9156     0.0086
    3.9185     0.0087
    3.9214     0.0089
    3.9243     0.0090
    3.9272     0.0092
    3.9301     0.0093
    3.9330     0.0095
    3.9359     0.0096
    3.9388     0.0098
    3.9417     0.0100
   3.94461    0.01014
   3.94751    0.01032
   3.95041    0.01051
   3.95331    0.01071
   3.95621    0.01091
   3.95910    0.01112
   3.96200    0.01134
   3.96490    0.01157
   3.96780    0.01180
   3.97070    0.01205
   3.97360    0.01231
   3.97649    0.01259
   3.97939    0.01287
   3.98229    0.01317
   3.98519    0.01349
   3.98809    0.01383
   3.99099    0.01418
   3.99388    0.01456
   3.99678    0.01496
   3.99968    0.01540
   4.00258    0.01586
   4.00548    0.01635
   4.00837    0.01689
   4.01127    0.01746
   4.01417    0.01808
   4.01707    0.01875
   4.01997    0.01948
   4.02287    0.02025
   4.02576    0.02107
   4.02866    0.02193
   4.03156    0.02282
   4.03446    0.02372
   4.03736    0.02459
   4.04026    0.02541
   4.04315    0.02612
   4.04605    0.02671
   4.04895    0.02716
   4.05185    0.02745
   4.05475    0.02763
   4.05765    0.02771
   4.06054    0.02774
   4.06344    0.02775
   4.06634    0.02778
   4.06924    0.02785
   4.07214    0.02797
   4.07504    0.02816
   4.07793    0.02843
   4.08083    0.02877
   4.08373    0.02919
   4.08663    0.02968
   4.08953    0.03025
   4.09243    0.03089
   4.09532    0.03161
   4.09822    0.03241
   4.10112    0.03329
   4.10402    0.03424
   4.10692    0.03528
   4.10981    0.03641
   4.11271    0.03764
   4.11561    0.03896
   4.11851    0.04039
   4.12141    0.04194
   4.12431    0.04362
   4.12720    0.04544
   4.13010    0.04741
   4.13300    0.04956
   4.13590    0.05189
   4.13880    0.05443
   4.14170    0.05720
   4.14459    0.06024
   4.14749    0.06357
   4.15039    0.06723
   4.15329    0.07126
   4.15619    0.07572
   4.15909    0.08064
   4.16198    0.08610
   4.16488    0.09215
   4.16778    0.09887
  4.170679   0.106323
  4.173577   0.114579
  4.176476   0.123700
  4.179374   0.133736
  4.182272   0.144711
  4.185170   0.156625
  4.188069   0.169428
  4.190967   0.183009
  4.193865   0.197172
  4.196764   0.211603
  4.199662   0.225851
  4.202560   0.239303
  4.205459   0.251212
  4.208356   0.260765
  4.211255   0.267213
  4.214153   0.270026
  4.217052   0.269043
  4.219950   0.264530
  4.222848   0.257128
  4.225747   0.247709
  4.228645   0.237197
  4.231543   0.226426
  4.234441   0.216057
  4.237339   0.206554
  4.240238   0.198214
  4.243136   0.191197
  4.246034   0.185570
  4.248933   0.181339
  4.251831   0.178482
  4.254729   0.176961
  4.257628   0.176740
  4.260526   0.177791
  4.263424   0.180100
  4.266323   0.183667
  4.269221   0.188515
  4.272119   0.194683
  4.275017   0.202238
  4.277915   0.211267
  4.280814   0.221883
  4.283712   0.234224
  4.286611   0.248464
  4.289509   0.264803
  4.292407   0.283474
  4.295306   0.304744
  4.298203   0.328908
  4.301102   0.356299
  4.304000   0.387261
  4.306899   0.422144
  4.309797   0.461267
  4.312695   0.504897
  4.315593   0.553137
  4.318492   0.605845
  4.321390   0.662483
  4.324288   0.721996
  4.327187   0.782627
  4.330085   0.841880
  4.332983   0.896559
  4.335881   0.943044
  4.338779   0.977665
  4.341678   0.997308
  4.344576   1.000000
  4.347474   0.985371
  4.350373   0.954783
  4.353271   0.911084
  4.356169   0.858013
  4.359067   0.799518
  4.361966   0.739136
  4.364864   0.679691
  4.367763   0.623172
  4.370660   0.570812
  4.373559   0.523220
  4.376457   0.480592
  4.379356   0.442832
  4.382254   0.409670
  4.385152   0.380745
  4.388051   0.355635
  4.390949   0.333913
  4.393847   0.315138
  4.396745   0.298876
  4.399643   0.284703
  4.402542   0.272230
  4.405440   0.261117
  4.408339   0.251088
  4.411237   0.241947
  4.414135   0.233572
  4.417033   0.225914
  4.419932   0.218982
  4.422830   0.212820
  4.425728   0.207484
  4.428627   0.203043
  4.431525   0.199559
  4.434423   0.197094
  4.437321   0.195705
  4.440219   0.195440
  4.443118   0.196325
  4.446016   0.198354
  4.448915   0.201463
  4.451813   0.205528
  4.454711   0.210341
  4.457609   0.215624
  4.460507   0.221044
  4.463406   0.226244
  4.466304   0.230897
  4.469203   0.234747
  4.472101   0.237636
  4.474999   0.239519
  4.477897   0.240456
  4.480796   0.240582
  4.483694   0.240070
  4.486592   0.239068
  4.489491   0.237651
  4.492389   0.235793
  4.495287   0.233385
  4.498185   0.230296
  4.501083   0.226447
  4.503982   0.221872
  4.506880   0.216723
  4.509778   0.211225
  4.512677   0.205599
  4.515575   0.199991
  4.518474   0.194436
  4.521372   0.188854
  4.524270   0.183098
  4.527168   0.177019
  4.530066   0.170534
  4.532965   0.163666
  4.535863   0.156544
  4.538761   0.149363
  4.541660   0.142347
  4.544558   0.135696
  4.547456   0.129568
  4.550354   0.124071
  4.553253   0.119263
  4.556151   0.115171
  4.559049   0.111797
  4.561947   0.109128
  4.564846   0.107150
  4.567744   0.105844
  4.570642   0.105199
  4.573541   0.105205
  4.576439   0.105860
  4.579338   0.107165
  4.582236   0.109128
  4.585134   0.111756
  4.588032   0.115058
  4.590930   0.119043
  4.593829   0.123721
  4.596727   0.129102
  4.599625   0.135214
  4.602524   0.142094
  4.605422   0.149801
  4.608320   0.158399
  4.611218   0.167943
  4.614117   0.178448
  4.617015   0.189850
  4.619914   0.201968
  4.622811   0.214483
  4.625710   0.226932
  4.628608   0.238723
  4.631506   0.249201
  4.634405   0.257746
  4.637303   0.263879
  4.640202   0.267376
  4.643100   0.268327
  4.645998   0.267137
  4.648896   0.264444
  4.651794   0.260993
  4.654693   0.257486
  4.657591   0.254465
  4.660490   0.252236
  4.663388   0.250829
  4.666286   0.250004
  4.669184   0.249294
  4.672082   0.248090
  4.674981   0.245762
  4.677879   0.241814
  4.680778   0.236007
  4.683676   0.228415
  4.686574   0.219398
  4.689472   0.209480
  4.692370   0.199228
  4.695269   0.189136
  4.698167   0.179560
  4.701065   0.170693
  4.703964   0.162587
  4.706862   0.155180
  4.709760   0.148346
  4.712658   0.141932
  4.715557   0.135804
  4.718455   0.129868
  4.721354   0.124076
  4.724252   0.118423
  4.727150   0.112937
  4.730048   0.107674
  4.732947   0.102706
   4.73584    0.09811
   4.73874    0.09395
   4.74164    0.09028
   4.74454    0.08714
   4.74744    0.08455
   4.75034    0.08250
   4.75323    0.08100
   4.75613    0.08002
   4.75903    0.07955
   4.76193    0.07956
   4.76483    0.08002
   4.76773    0.08093
   4.77062    0.08225
   4.77352    0.08394
   4.77642    0.08593
   4.77932    0.08812
   4.78222    0.09033
   4.78512    0.09234
   4.78801    0.09387
   4.79091    0.09466
   4.79381    0.09449
   4.79671    0.09322
   4.79961    0.09088
   4.80251    0.08757
   4.80540    0.08353
   4.80830    0.07902
   4.81120    0.07430
   4.81410    0.06957
   4.81700    0.06501
   4.81990    0.06071
   4.82279    0.05674
   4.82569    0.05311
   4.82859    0.04984
   4.83149    0.04689
   4.83439    0.04426
   4.83728    0.04191
   4.84018    0.03982
   4.84308    0.03796
   4.84598    0.03631
   4.84888    0.03484
   4.85178    0.03353
   4.85467    0.03238
   4.85757    0.03136
   4.86047    0.03046
   4.86337    0.02967
   4.86627    0.02899
   4.86917    0.02840
   4.87206    0.02791
   4.87496    0.02750
   4.87786    0.02717
   4.88076    0.02692
   4.88366    0.02675
   4.88656    0.02666
   4.88945    0.02665
   4.89235    0.02672
   4.89525    0.02688
   4.89815    0.02712
   4.90105    0.02745
   4.90395    0.02789
   4.90684    0.02843
   4.90974    0.02910
   4.91264    0.02989
   4.91554    0.03082
   4.91844    0.03191
   4.92134    0.03318
   4.92423    0.03465
   4.92713    0.03633
   4.93003    0.03827
   4.93293    0.04048
   4.93583    0.04298
   4.93872    0.04582
   4.94162    0.04899
   4.94452    0.05252
   4.94742    0.05638
   4.95032    0.06054
   4.95322    0.06489
   4.95611    0.06932
   4.95901    0.07362
   4.96191    0.07758
   4.96481    0.08097
   4.96771    0.08360
   4.97061    0.08537
   4.97350    0.08631
   4.97640    0.08656
   4.97930    0.08633
   4.98220    0.08583
   4.98510    0.08525
   4.98800    0.08471
   4.99089    0.08420
   4.99379    0.08365
   4.99669    0.08288
   4.99959    0.08171
   5.00249    0.07996
   5.00539    0.07753
   5.00828    0.07441
   5.01118    0.07071
   5.01408    0.06659
   5.01698    0.06226
   5.01988    0.05789
   5.02278    0.05364
   5.02567    0.04961
   5.02857    0.04587
   5.03147    0.04244
   5.03437    0.03934
   5.03727    0.03654
   5.04016    0.03403
   5.04306    0.03179
   5.04596    0.02979
   5.04886    0.02800
   5.05176    0.02640
   5.05466    0.02497
   5.05755    0.02369
   5.06045    0.02254
   5.06335    0.02150
   5.06625    0.02057
   5.06915    0.01974
   5.07205    0.01898
   5.07494    0.01830
   5.07784    0.01769
   5.08074    0.01713
   5.08364    0.01663
   5.08654    0.01618
   5.08944    0.01578
   5.09233    0.01542
   5.09523    0.01509
   5.09813    0.01481
   5.10103    0.01455
   5.10393    0.01433
   5.10683    0.01414
   5.10972    0.01398
   5.11262    0.01385
   5.11552    0.01375
   5.11842    0.01367
   5.12132    0.01363
   5.12422    0.01361
   5.12711    0.01362
   5.13001    0.01366
   5.13291    0.01373
   5.13581    0.01383
   5.13871    0.01396
   5.14160    0.01413
   5.14450    0.01434
   5.14740    0.01459
   5.15030    0.01489
   5.15320    0.01524
   5.15610    0.01564
   5.15899    0.01610
   5.16189    0.01663
   5.16479    0.01724
   5.16769    0.01793
   5.17059    0.01871
   5.17349    0.01960
   5.17638    0.02061
   5.17928    0.02174
   5.18218    0.02300
   5.18508    0.02441
   5.18798    0.02597
   5.19088    0.02766
   5.19377    0.02946
   5.19667    0.03134
   5.19957    0.03325
   5.20247    0.03511
   5.20537    0.03684
   5.20827    0.03833
   5.21116    0.03952
   5.21406    0.04034
   5.21696    0.04077
   5.21986    0.04084
   5.22276    0.04060
   5.22566    0.04017
   5.22855    0.03964
   5.23145    0.03914
   5.23435    0.03876
   5.23725    0.03857
   5.24015    0.03865
   5.24304    0.03904
   5.24594    0.03978
   5.24884    0.04088
   5.25174    0.04239
   5.25464    0.04433
   5.25754    0.04671
   5.26043    0.04956
   5.26333    0.05289
   5.26623    0.05669
   5.26913    0.06092
   5.27203    0.06551
   5.27493    0.07031
   5.27782    0.07512
   5.28072    0.07965
   5.28362    0.08357
   5.28652    0.08650
   5.28942    0.08814
   5.29232    0.08828
   5.29521    0.08687
   5.29811    0.08405
   5.30101    0.08007
   5.30391    0.07529
   5.30681    0.07004
   5.30971    0.06464
   5.31260    0.05933
   5.31550    0.05427
   5.31840    0.04956
   5.32130    0.04524
   5.32420    0.04133
   5.32710    0.03782
   5.32999    0.03468
   5.33289    0.03188
   5.33579    0.02939
   5.33869    0.02716
   5.34159    0.02518
   5.34448    0.02341
   5.34738    0.02183
   5.35028    0.02041
   5.35318    0.01913
   5.35608    0.01798
   5.35898    0.01695
   5.36187    0.01601
   5.36477    0.01516
   5.36767    0.01438
   5.37057    0.01368
   5.37347    0.01303
   5.37637    0.01244
   5.37926    0.01190
   5.38216    0.01141
   5.38506    0.01095
   5.38796    0.01053
   5.39086    0.01014
    5.3938     0.0098
    5.3967     0.0094
    5.3996     0.0091
    5.4025     0.0089
    5.4053     0.0086
    5.4082     0.0083
    5.4111     0.0081
    5.4140     0.0079
    5.4169     0.0077
    5.4198     0.0075
    5.4227     0.0073
    5.4256     0.0072
    5.4285     0.0070
    5.4314     0.0069
    5.4343     0.0068
    5.4372     0.0067
    5.4401     0.0066
    5.4430     0.0065
    5.4459     0.0064
    5.4488     0.0063
    5.4517     0.0062
    5.4546     0.0062
    5.4575     0.0061
    5.4604     0.0061
    5.4633     0.0060
    5.4662     0.0060
    5.4691     0.0060
    5.4720     0.0060
    5.4749     0.0060
    5.4778     0.0060
    5.4807     0.0060
    5.4836     0.0061
    5.4865     0.0061
    5.4894     0.0062
    5.4923     0.0063
    5.4952     0.0064
    5.4981     0.0065
    5.5010     0.0066
    5.5039     0.0068
    5.5068     0.0070
    5.5097     0.0072
    5.5126     0.0074
    5.5155     0.0077
    5.5184     0.0080
    5.5213     0.0084
    5.5242     0.0088
    5.5271     0.0093
    5.5300     0.0098
   5.53287    0.01046
   5.53577    0.01116
   5.53867    0.01194
   5.54157    0.01281
   5.54447    0.01376
   5.54737    0.01479
   5.55026    0.01587
   5.55316    0.01698
   5.55606    0.01806
   5.55896    0.01907
   5.56186    0.01995
   5.56475    0.02064
   5.56765    0.02108
   5.57055    0.02123
   5.57345    0.02107
   5.57635    0.02062
   5.57925    0.01989
   5.58214    0.01895
   5.58504    0.01787
   5.58794    0.01671
   5.59084    0.01552
   5.59374    0.01436
   5.59664    0.01327
   5.59953    0.01224
   5.60243    0.01131
   5.60533    0.01046
    5.6082     0.0097
    5.6111     0.0090
    5.6140     0.0084
    5.6169     0.0079
    5.6198     0.0074
    5.6227     0.0070
    5.6256     0.0066
    5.6285     0.0062
    5.6314     0.0059
  5.634     0.5633E-2
  5.637     0.5381E-2
  5.640     0.5153E-2
  5.643     0.4947E-2
  5.646     0.4760E-2
  5.649     0.4589E-2
  5.652     0.4434E-2
  5.655     0.4293E-2
  5.657     0.4163E-2
  5.660     0.4045E-2
  5.663     0.3937E-2
  5.666     0.3838E-2
  5.669     0.3748E-2
  5.672     0.3665E-2
  5.675     0.3590E-2
  5.678     0.3522E-2
  5.681     0.3459E-2
  5.684     0.3403E-2
  5.686     0.3353E-2
  5.689     0.3308E-2
  5.692     0.3269E-2
  5.695     0.3235E-2
  5.698     0.3207E-2
  5.701     0.3184E-2
  5.704     0.3167E-2
  5.707     0.3156E-2
  5.710     0.3150E-2
  5.713     0.3151E-2
  5.715     0.3160E-2
  5.718     0.3175E-2
  5.721     0.3199E-2
  5.724     0.3231E-2
  5.727     0.3274E-2
  5.730     0.3326E-2
  5.733     0.3390E-2
  5.736     0.3466E-2
  5.739     0.3554E-2
  5.742     0.3655E-2
  5.744     0.3766E-2
  5.747     0.3887E-2
  5.750     0.4012E-2
  5.753     0.4136E-2
  5.756     0.4250E-2
  5.759     0.4345E-2
  5.762     0.4410E-2
  5.765     0.4438E-2
  5.768     0.4425E-2
  5.771     0.4371E-2
  5.773     0.4281E-2
  5.776     0.4164E-2
  5.779     0.4030E-2
  5.782     0.3888E-2
  5.785     0.3747E-2
  5.788     0.3612E-2
  5.791     0.3486E-2
  5.794     0.3373E-2
  5.797     0.3272E-2
  5.800     0.3185E-2
  5.802     0.3110E-2
  5.805     0.3046E-2
  5.808     0.2995E-2
  5.811     0.2953E-2
  5.814     0.2922E-2
  5.817     0.2900E-2
  5.820     0.2887E-2
  5.823     0.2883E-2
  5.826     0.2887E-2
  5.828     0.2901E-2
  5.831     0.2922E-2
  5.834     0.2953E-2
  5.837     0.2994E-2
  5.840     0.3044E-2
  5.843     0.3105E-2
  5.846     0.3178E-2
  5.849     0.3263E-2
  5.852     0.3363E-2
  5.855     0.3478E-2
  5.857     0.3611E-2
  5.860     0.3763E-2
  5.863     0.3937E-2
  5.866     0.4136E-2
  5.869     0.4362E-2
  5.872     0.4617E-2
  5.875     0.4905E-2
  5.878     0.5228E-2
  5.881     0.5585E-2
    5.8836     0.0060
    5.8865     0.0064
    5.8894     0.0068
    5.8923     0.0073
    5.8952     0.0077
    5.8981     0.0081
    5.9010     0.0084
    5.9039     0.0086
    5.9068     0.0088
    5.9097     0.0088
    5.9125     0.0088
    5.9154     0.0087
    5.9183     0.0085
    5.9212     0.0084
    5.9241     0.0082
    5.9270     0.0081
    5.9299     0.0080
    5.9328     0.0080
    5.9357     0.0079
    5.9386     0.0078
    5.9415     0.0078
    5.9444     0.0076
    5.9473     0.0074
    5.9502     0.0071
    5.9531     0.0068
    5.9560     0.0065
    5.9589     0.0061
  5.962     0.5696E-2
  5.965     0.5314E-2
  5.968     0.4950E-2
  5.971     0.4610E-2
  5.973     0.4297E-2
  5.976     0.4013E-2
  5.979     0.3756E-2
  5.982     0.3524E-2
  5.985     0.3316E-2
  5.988     0.3129E-2
  5.991     0.2961E-2
  5.994     0.2810E-2
  5.997     0.2675E-2
  5.999     0.2552E-2
  6.002     0.2441E-2
  6.005     0.2340E-2
  6.008     0.2248E-2
  6.011     0.2165E-2
  6.014     0.2088E-2
  6.017     0.2018E-2
  6.020     0.1954E-2
  6.023     0.1894E-2
  6.026     0.1840E-2
  6.028     0.1789E-2
  6.031     0.1741E-2
  6.034     0.1697E-2
  6.037     0.1656E-2
  6.040     0.1618E-2
  6.043     0.1582E-2
  6.046     0.1548E-2
  6.049     0.1517E-2
  6.052     0.1487E-2
  6.055     0.1458E-2
  6.057     0.1432E-2
  6.060     0.1407E-2
  6.063     0.1383E-2
  6.066     0.1360E-2
  6.069     0.1338E-2
  6.072     0.1318E-2
  6.075     0.1298E-2
  6.078     0.1279E-2
  6.081     0.1261E-2
  6.084     0.1244E-2
  6.086     0.1228E-2
  6.089     0.1212E-2
  6.092     0.1197E-2
  6.095     0.1182E-2
  6.098     0.1168E-2
  6.101     0.1154E-2
  6.104     0.1141E-2
  6.107     0.1129E-2
  6.110     0.1117E-2
  6.113     0.1105E-2
  6.115     0.1093E-2
  6.118     0.1082E-2
  6.121     0.1072E-2
  6.124     0.1061E-2
  6.127     0.1051E-2
  6.130     0.1041E-2
  6.133     0.1032E-2
  6.136     0.1023E-2
  6.139     0.1014E-2
  6.142     0.1005E-2
  6.144     0.9964E-3
  6.147     0.9881E-3
  6.150     0.9800E-3
  6.153     0.9721E-3
  6.156     0.9644E-3
  6.159     0.9568E-3
  6.162     0.9495E-3
  6.165     0.9423E-3
  6.168     0.9352E-3
  6.170     0.9283E-3
  6.173     0.9215E-3
  6.176     0.9149E-3
  6.179     0.9085E-3
  6.182     0.9021E-3
  6.185     0.8959E-3
  6.188     0.8898E-3
  6.191     0.8838E-3
  6.194     0.8779E-3
  6.197     0.8721E-3
  6.199     0.8664E-3
  6.202     0.8609E-3
  6.205     0.8554E-3
  6.208     0.8500E-3
  6.211     0.8447E-3
  6.214     0.8395E-3
  6.217     0.8344E-3
  6.220     0.8294E-3
  6.223     0.8244E-3
  6.226     0.8195E-3
  6.228     0.8147E-3
  6.231     0.8100E-3
  6.234     0.8053E-3
  6.237     0.8007E-3
  6.240     0.7962E-3
  6.243     0.7917E-3
  6.246     0.7873E-3
  6.249     0.7830E-3
  6.252     0.7787E-3
  6.255     0.7745E-3
  6.257     0.7703E-3
  6.260     0.7662E-3
  6.263     0.7621E-3
  6.266     0.7581E-3
  6.269     0.7542E-3
  6.272     0.7502E-3
  6.275     0.7464E-3
  6.278     0.7426E-3
  6.281     0.7388E-3
  6.284     0.7351E-3
  6.286     0.7314E-3
  6.289     0.7277E-3
  6.292     0.7241E-3
  6.295     0.7206E-3
  6.298     0.7171E-3
  6.301     0.7136E-3
  6.304     0.7102E-3
  6.307     0.7068E-3
  6.310     0.7034E-3
  6.313     0.7001E-3
  6.315     0.6968E-3
  6.318     0.6935E-3
  6.321     0.6903E-3
  6.324     0.6871E-3
  6.327     0.6839E-3
  6.330     0.6808E-3
  6.333     0.6777E-3
  6.336     0.6746E-3
  6.339     0.6716E-3
  6.341     0.6686E-3
  6.344     0.6656E-3
  6.347     0.6626E-3
  6.350     0.6597E-3
  6.353     0.6568E-3
  6.356     0.6539E-3
  6.359     0.6511E-3
  6.362     0.6483E-3
  6.365     0.6455E-3
  6.368     0.6427E-3
  6.370     0.6400E-3
  6.373     0.6372E-3
  6.376     0.6345E-3
  6.379     0.6319E-3
  6.382     0.6292E-3
  6.385     0.6266E-3
  6.388     0.6240E-3
  6.391     0.6214E-3
  6.394     0.6188E-3
  6.397     0.6163E-3
  6.399     0.6138E-3
  6.402     0.6113E-3
  6.405     0.6088E-3
  6.408     0.6063E-3
  6.411     0.6039E-3
  6.414     0.6015E-3
  6.417     0.5991E-3
  6.420     0.5967E-3
  6.423     0.5943E-3
  6.426     0.5920E-3
  6.428     0.5896E-3
  6.431     0.5873E-3
  6.434     0.5850E-3
  6.437     0.5828E-3
  6.440     0.5805E-3
  6.443     0.5783E-3
# 
# 04/27/2021 at 16:16 YPP @ lux-1 [start]
# 04/27/2021 at 16:16             [end]
#  
# Timing   [Min/Max/Average]: 03s/03s/03s
#
# .-Input file : amp.in
# | excitons                     # [R] Excitons
# | amplitude                    # [R] Amplitude
# | BoseTemp= 0.000000     eV    # Bosonic Temperature
# | States= "1 - 9"              # Index of the BS state(s)
# | #DipWeight                   #  Weight the contribution to the exciton WFs with the dipoles
# | Degen_Step=0.1000E-4   eV    # Maximum energy separation of two degenerate states
