#                                                           
#  __  __   ________   ___ __ __    _______   ______        
# /_/\/_/\ /_______/\ /__//_//_/\ /_______/\ /_____/\       
# \ \ \ \ \\::: _  \ \\::\| \| \ \\::: _  \ \\:::_ \ \      
#  \:\_\ \ \\::(_)  \ \\:.      \ \\::(_)  \/_\:\ \ \ \     
#   \::::_\/ \:: __  \ \\:.\-/\  \ \\::  _  \ \\:\ \ \ \    
#     \::\ \  \:.\ \  \ \\. \  \  \ \\::(_)  \ \\:\_\ \ \   
#      \__\/   \__\/\__\/ \__\/ \__\/ \_______\/ \_____\/   
#                                                           
#                                                           
#              GPL Version 4.1.4 Revision 76                
#                        MPI Build                          
#                http://www.yambo-code.org                  
#
# BSK|Identifier              :2467
#    |Dimension               :14580
#    |Bands                   :100 - 180
#    |Exchange           [res]: yes
#    |Correlation        [res]: yes
#    |Kernel`s coupling       : no
#    |Exchange           [cpl]: no
#    |Correlation        [cpl]: no
#    |W interaction is bare   : no
#    |ALDA kernel in R-space  : no
#    |RL vectors    [exchange]:27983
#    |RL vectors [correlation]:4011
#    |E/h energy range    [ev]:-1.000000 - -1.000000
#    |Coupling range     [o/o]: 100.0000 -  100.0000
#  W |Interaction is diagonal : no
#    |Matrix size             :8049
#    |Bands                   :1 - 1800
#    |e/h energy range    [ev]:-1.000000 - -1.000000
#    |Poles              [o/o]: 100.0000
#    |RL vectors in the sum   :27983
#    |[r,Vnl] included        : yes
#    |Field direction         :0.1000E-4  0.000000  0.000000
#    |Coulomb Cutoff          :box z
#    |xc-Kernel               :none
# RIM|RL components      [col]:0
#    |Random points      [col]:0
#
# Electron-Hole pairs that contributes to Excitonic State 1 more than 5%
#
#  E    [eV]  Amplitude
#  
    3.0531     0.0032
    3.0560     0.0032
    3.0588     0.0033
    3.0616     0.0033
    3.0645     0.0033
    3.0673     0.0034
    3.0701     0.0034
    3.0730     0.0034
    3.0758     0.0035
    3.0786     0.0035
    3.0815     0.0036
    3.0843     0.0036
    3.0872     0.0036
    3.0900     0.0037
    3.0928     0.0037
    3.0957     0.0038
    3.0985     0.0038
    3.1013     0.0039
    3.1042     0.0039
    3.1070     0.0039
    3.1098     0.0040
    3.1127     0.0040
    3.1155     0.0041
    3.1183     0.0041
    3.1212     0.0042
    3.1240     0.0042
    3.1268     0.0043
    3.1297     0.0043
    3.1325     0.0044
    3.1353     0.0044
    3.1382     0.0045
    3.1410     0.0046
    3.1438     0.0046
    3.1467     0.0047
    3.1495     0.0047
    3.1523     0.0048
    3.1552     0.0049
    3.1580     0.0049
    3.1608     0.0050
    3.1637     0.0050
    3.1665     0.0051
    3.1693     0.0052
    3.1722     0.0053
    3.1750     0.0053
    3.1778     0.0054
    3.1807     0.0055
    3.1835     0.0055
    3.1864     0.0056
    3.1892     0.0057
    3.1920     0.0058
    3.1949     0.0059
    3.1977     0.0060
    3.2005     0.0060
    3.2034     0.0061
    3.2062     0.0062
    3.2090     0.0063
    3.2119     0.0064
    3.2147     0.0065
    3.2175     0.0066
    3.2204     0.0067
    3.2232     0.0068
    3.2260     0.0069
    3.2289     0.0070
    3.2317     0.0071
    3.2345     0.0072
    3.2374     0.0074
    3.2402     0.0075
    3.2430     0.0076
    3.2459     0.0077
    3.2487     0.0078
    3.2515     0.0080
    3.2544     0.0081
    3.2572     0.0083
    3.2600     0.0084
    3.2629     0.0085
    3.2657     0.0087
    3.2685     0.0088
    3.2714     0.0090
    3.2742     0.0092
    3.2770     0.0093
    3.2799     0.0095
    3.2827     0.0097
    3.2855     0.0098
   3.28838    0.01003
   3.29122    0.01022
   3.29405    0.01041
   3.29689    0.01061
   3.29972    0.01082
   3.30255    0.01103
   3.30539    0.01125
   3.30822    0.01147
   3.31106    0.01171
   3.31389    0.01195
   3.31673    0.01219
   3.31956    0.01245
   3.32239    0.01271
   3.32523    0.01298
   3.32806    0.01326
   3.33090    0.01355
   3.33373    0.01385
   3.33657    0.01415
   3.33940    0.01447
   3.34223    0.01480
   3.34507    0.01514
   3.34790    0.01550
   3.35074    0.01586
   3.35357    0.01624
   3.35640    0.01663
   3.35924    0.01704
   3.36207    0.01746
   3.36491    0.01790
   3.36774    0.01835
   3.37058    0.01882
   3.37341    0.01931
   3.37624    0.01982
   3.37908    0.02035
   3.38191    0.02091
   3.38475    0.02148
   3.38758    0.02208
   3.39042    0.02271
   3.39325    0.02336
   3.39608    0.02404
   3.39892    0.02475
   3.40175    0.02549
   3.40459    0.02627
   3.40742    0.02708
   3.41026    0.02793
   3.41309    0.02882
   3.41592    0.02976
   3.41876    0.03074
   3.42159    0.03178
   3.42443    0.03286
   3.42726    0.03400
   3.43009    0.03521
   3.43293    0.03648
   3.43576    0.03782
   3.43860    0.03923
   3.44143    0.04073
   3.44427    0.04231
   3.44710    0.04399
   3.44993    0.04578
   3.45277    0.04767
   3.45560    0.04969
   3.45844    0.05183
   3.46127    0.05412
   3.46411    0.05657
   3.46694    0.05919
   3.46977    0.06199
   3.47261    0.06500
   3.47544    0.06824
   3.47828    0.07172
   3.48111    0.07549
   3.48395    0.07955
   3.48678    0.08396
   3.48961    0.08874
   3.49245    0.09395
   3.49528    0.09962
  3.498117   0.105817
  3.500951   0.112604
  3.503785   0.120054
  3.506619   0.128248
  3.509454   0.137279
  3.512288   0.147250
  3.515122   0.158273
  3.517956   0.170475
  3.520791   0.183984
  3.523625   0.198928
  3.526459   0.215426
  3.529293   0.233568
  3.532127   0.253403
  3.534962   0.274897
  3.537796   0.297911
  3.540630   0.322183
  3.543465   0.347325
  3.546299   0.372864
  3.549133   0.398356
  3.551967   0.423498
  3.554801   0.448283
  3.557636   0.473073
  3.560470   0.498576
  3.563304   0.525737
  3.566138   0.555533
  3.568973   0.588806
  3.571807   0.626093
  3.574641   0.667505
  3.577475   0.712636
  3.580310   0.760535
  3.583144   0.809675
  3.585978   0.858045
  3.588812   0.903251
  3.591646   0.942687
  3.594481   0.973638
  3.597315   0.993488
  3.600149   1.000000
  3.602984   0.991723
  3.605818   0.968423
  3.608652   0.931298
  3.611486   0.882857
  3.614321   0.826435
  3.617155   0.765566
  3.619989   0.703446
  3.622823   0.642574
  3.625657   0.584712
  3.628492   0.530914
  3.631326   0.481682
  3.634160   0.437125
  3.636994   0.397103
  3.639828   0.361314
  3.642663   0.329398
  3.645497   0.300968
  3.648331   0.275644
  3.651165   0.253070
  3.654000   0.232915
  3.656834   0.214889
  3.659668   0.198735
  3.662503   0.184225
  3.665337   0.171162
  3.668171   0.159371
  3.671005   0.148704
  3.673840   0.139030
  3.676674   0.130235
  3.679508   0.122222
  3.682342   0.114903
  3.685176   0.108203
  3.688011   0.102058
   3.69085    0.09641
   3.69368    0.09121
   3.69651    0.08641
   3.69935    0.08197
   3.70218    0.07785
   3.70502    0.07404
   3.70785    0.07049
   3.71068    0.06719
   3.71352    0.06412
   3.71635    0.06124
   3.71919    0.05856
   3.72202    0.05604
   3.72486    0.05368
   3.72769    0.05147
   3.73052    0.04939
   3.73336    0.04743
   3.73619    0.04558
   3.73903    0.04384
   3.74186    0.04220
   3.74470    0.04065
   3.74753    0.03918
   3.75036    0.03779
   3.75320    0.03647
   3.75603    0.03521
   3.75887    0.03403
   3.76170    0.03290
   3.76453    0.03182
   3.76737    0.03080
   3.77020    0.02982
   3.77304    0.02889
   3.77587    0.02801
   3.77871    0.02716
   3.78154    0.02635
   3.78437    0.02558
   3.78721    0.02484
   3.79004    0.02413
   3.79288    0.02345
   3.79571    0.02280
   3.79855    0.02217
   3.80138    0.02158
   3.80421    0.02100
   3.80705    0.02045
   3.80988    0.01992
   3.81272    0.01941
   3.81555    0.01892
   3.81839    0.01844
   3.82122    0.01799
   3.82405    0.01755
   3.82689    0.01713
   3.82972    0.01672
   3.83256    0.01632
   3.83539    0.01594
   3.83823    0.01558
   3.84106    0.01522
   3.84389    0.01488
   3.84673    0.01455
   3.84956    0.01423
   3.85240    0.01392
   3.85523    0.01362
   3.85806    0.01333
   3.86090    0.01305
   3.86373    0.01278
   3.86657    0.01252
   3.86940    0.01226
   3.87224    0.01201
   3.87507    0.01177
   3.87790    0.01154
   3.88074    0.01131
   3.88357    0.01109
   3.88641    0.01088
   3.88924    0.01067
   3.89208    0.01047
   3.89491    0.01027
   3.89774    0.01008
    3.9006     0.0099
    3.9034     0.0097
    3.9062     0.0095
    3.9091     0.0094
    3.9119     0.0092
    3.9147     0.0090
    3.9176     0.0089
    3.9204     0.0087
    3.9233     0.0086
    3.9261     0.0084
    3.9289     0.0083
    3.9318     0.0082
    3.9346     0.0080
    3.9374     0.0079
    3.9403     0.0078
    3.9431     0.0076
    3.9459     0.0075
    3.9488     0.0074
    3.9516     0.0073
    3.9544     0.0072
    3.9573     0.0071
    3.9601     0.0069
    3.9629     0.0068
    3.9658     0.0067
    3.9686     0.0066
    3.9714     0.0065
    3.9743     0.0064
    3.9771     0.0063
    3.9799     0.0063
    3.9828     0.0062
    3.9856     0.0061
    3.9884     0.0060
    3.9913     0.0059
    3.9941     0.0058
    3.9969     0.0057
    3.9998     0.0057
    4.0026     0.0056
    4.0054     0.0055
    4.0083     0.0054
    4.0111     0.0054
    4.0139     0.0053
    4.0168     0.0052
    4.0196     0.0051
    4.0225     0.0051
    4.0253     0.0050
    4.0281     0.0049
    4.0310     0.0049
    4.0338     0.0048
    4.0366     0.0048
    4.0395     0.0047
    4.0423     0.0046
    4.0451     0.0046
    4.0480     0.0045
    4.0508     0.0045
    4.0536     0.0044
    4.0565     0.0044
    4.0593     0.0043
    4.0621     0.0043
    4.0650     0.0042
    4.0678     0.0041
    4.0706     0.0041
  4.073     0.4052E-2
  4.076     0.4005E-2
  4.079     0.3958E-2
  4.082     0.3912E-2
  4.085     0.3867E-2
  4.088     0.3823E-2
  4.090     0.3780E-2
  4.093     0.3737E-2
  4.096     0.3695E-2
  4.099     0.3654E-2
  4.102     0.3613E-2
  4.105     0.3573E-2
  4.107     0.3534E-2
  4.110     0.3495E-2
  4.113     0.3457E-2
  4.116     0.3420E-2
  4.119     0.3383E-2
  4.122     0.3347E-2
  4.124     0.3311E-2
  4.127     0.3276E-2
  4.130     0.3242E-2
  4.133     0.3208E-2
  4.136     0.3174E-2
  4.139     0.3141E-2
  4.141     0.3109E-2
  4.144     0.3077E-2
  4.147     0.3046E-2
  4.150     0.3015E-2
  4.153     0.2984E-2
  4.156     0.2954E-2
  4.158     0.2925E-2
  4.161     0.2895E-2
  4.164     0.2867E-2
  4.167     0.2839E-2
  4.170     0.2811E-2
  4.173     0.2783E-2
  4.175     0.2756E-2
  4.178     0.2730E-2
  4.181     0.2703E-2
  4.184     0.2677E-2
  4.187     0.2652E-2
  4.190     0.2627E-2
  4.193     0.2602E-2
  4.195     0.2578E-2
  4.198     0.2553E-2
  4.201     0.2530E-2
  4.204     0.2506E-2
  4.207     0.2483E-2
  4.210     0.2460E-2
  4.212     0.2438E-2
  4.215     0.2416E-2
  4.218     0.2394E-2
  4.221     0.2372E-2
  4.224     0.2351E-2
  4.227     0.2330E-2
  4.229     0.2309E-2
  4.232     0.2289E-2
  4.235     0.2269E-2
  4.238     0.2249E-2
  4.241     0.2229E-2
  4.244     0.2210E-2
  4.246     0.2191E-2
  4.249     0.2172E-2
  4.252     0.2153E-2
  4.255     0.2135E-2
  4.258     0.2117E-2
  4.261     0.2099E-2
  4.263     0.2081E-2
  4.266     0.2063E-2
  4.269     0.2046E-2
  4.272     0.2029E-2
  4.275     0.2012E-2
  4.278     0.1996E-2
  4.280     0.1979E-2
  4.283     0.1963E-2
  4.286     0.1947E-2
  4.289     0.1931E-2
  4.292     0.1916E-2
  4.295     0.1900E-2
  4.297     0.1885E-2
  4.300     0.1870E-2
  4.303     0.1855E-2
  4.306     0.1840E-2
  4.309     0.1826E-2
  4.312     0.1811E-2
  4.314     0.1797E-2
  4.317     0.1783E-2
  4.320     0.1769E-2
  4.323     0.1756E-2
  4.326     0.1742E-2
  4.329     0.1729E-2
  4.331     0.1715E-2
  4.334     0.1702E-2
  4.337     0.1689E-2
  4.340     0.1677E-2
  4.343     0.1664E-2
  4.346     0.1651E-2
  4.348     0.1639E-2
  4.351     0.1627E-2
  4.354     0.1615E-2
  4.357     0.1603E-2
  4.360     0.1591E-2
  4.363     0.1579E-2
  4.365     0.1568E-2
  4.368     0.1556E-2
  4.371     0.1545E-2
  4.374     0.1534E-2
  4.377     0.1523E-2
  4.380     0.1512E-2
  4.382     0.1501E-2
  4.385     0.1490E-2
  4.388     0.1480E-2
  4.391     0.1469E-2
  4.394     0.1459E-2
  4.397     0.1449E-2
  4.399     0.1438E-2
  4.402     0.1428E-2
  4.405     0.1418E-2
  4.408     0.1409E-2
  4.411     0.1399E-2
  4.414     0.1389E-2
  4.416     0.1380E-2
  4.419     0.1370E-2
  4.422     0.1361E-2
  4.425     0.1352E-2
  4.428     0.1343E-2
  4.431     0.1333E-2
  4.433     0.1325E-2
  4.436     0.1316E-2
  4.439     0.1307E-2
  4.442     0.1298E-2
  4.445     0.1290E-2
  4.448     0.1281E-2
  4.450     0.1273E-2
  4.453     0.1264E-2
  4.456     0.1256E-2
  4.459     0.1248E-2
  4.462     0.1240E-2
  4.465     0.1232E-2
  4.467     0.1224E-2
  4.470     0.1216E-2
  4.473     0.1208E-2
  4.476     0.1200E-2
  4.479     0.1193E-2
  4.482     0.1185E-2
  4.484     0.1178E-2
  4.487     0.1170E-2
  4.490     0.1163E-2
  4.493     0.1156E-2
  4.496     0.1148E-2
  4.499     0.1141E-2
  4.501     0.1134E-2
  4.504     0.1127E-2
  4.507     0.1120E-2
  4.510     0.1113E-2
  4.513     0.1106E-2
  4.516     0.1100E-2
  4.518     0.1093E-2
  4.521     0.1086E-2
  4.524     0.1080E-2
  4.527     0.1073E-2
  4.530     0.1067E-2
  4.533     0.1060E-2
  4.535     0.1054E-2
  4.538     0.1048E-2
  4.541     0.1041E-2
  4.544     0.1035E-2
  4.547     0.1029E-2
  4.550     0.1023E-2
  4.552     0.1017E-2
  4.555     0.1011E-2
  4.558     0.1005E-2
  4.561     0.9994E-3
  4.564     0.9936E-3
  4.567     0.9878E-3
  4.569     0.9821E-3
  4.572     0.9765E-3
  4.575     0.9709E-3
  4.578     0.9653E-3
  4.581     0.9598E-3
  4.584     0.9544E-3
  4.586     0.9490E-3
  4.589     0.9436E-3
  4.592     0.9383E-3
  4.595     0.9330E-3
  4.598     0.9278E-3
  4.601     0.9226E-3
  4.603     0.9175E-3
  4.606     0.9124E-3
  4.609     0.9074E-3
  4.612     0.9023E-3
  4.615     0.8974E-3
  4.618     0.8925E-3
  4.620     0.8876E-3
  4.623     0.8827E-3
  4.626     0.8779E-3
  4.629     0.8732E-3
  4.632     0.8684E-3
  4.635     0.8638E-3
  4.637     0.8591E-3
  4.640     0.8545E-3
  4.643     0.8499E-3
  4.646     0.8454E-3
  4.649     0.8409E-3
  4.652     0.8365E-3
  4.654     0.8320E-3
  4.657     0.8277E-3
  4.660     0.8233E-3
  4.663     0.8190E-3
  4.666     0.8147E-3
  4.669     0.8105E-3
  4.671     0.8063E-3
  4.674     0.8021E-3
  4.677     0.7979E-3
  4.680     0.7938E-3
  4.683     0.7897E-3
  4.686     0.7857E-3
  4.688     0.7817E-3
  4.691     0.7777E-3
  4.694     0.7737E-3
  4.697     0.7698E-3
  4.700     0.7659E-3
  4.703     0.7621E-3
  4.706     0.7582E-3
  4.708     0.7544E-3
  4.711     0.7507E-3
  4.714     0.7469E-3
  4.717     0.7432E-3
  4.720     0.7395E-3
  4.723     0.7359E-3
  4.725     0.7322E-3
  4.728     0.7286E-3
  4.731     0.7251E-3
  4.734     0.7215E-3
  4.737     0.7180E-3
  4.740     0.7145E-3
  4.742     0.7110E-3
  4.745     0.7076E-3
  4.748     0.7042E-3
  4.751     0.7008E-3
  4.754     0.6975E-3
  4.757     0.6941E-3
  4.759     0.6908E-3
  4.762     0.6875E-3
  4.765     0.6843E-3
  4.768     0.6810E-3
  4.771     0.6778E-3
  4.774     0.6746E-3
  4.776     0.6715E-3
  4.779     0.6683E-3
  4.782     0.6652E-3
  4.785     0.6621E-3
  4.788     0.6590E-3
  4.791     0.6560E-3
  4.793     0.6530E-3
  4.796     0.6500E-3
  4.799     0.6470E-3
  4.802     0.6440E-3
  4.805     0.6411E-3
  4.808     0.6382E-3
  4.810     0.6353E-3
  4.813     0.6324E-3
  4.816     0.6295E-3
  4.819     0.6267E-3
  4.822     0.6239E-3
  4.825     0.6211E-3
  4.827     0.6183E-3
  4.830     0.6156E-3
  4.833     0.6129E-3
  4.836     0.6102E-3
  4.839     0.6075E-3
  4.842     0.6048E-3
  4.844     0.6021E-3
  4.847     0.5995E-3
  4.850     0.5969E-3
  4.853     0.5943E-3
  4.856     0.5917E-3
  4.859     0.5892E-3
  4.861     0.5866E-3
  4.864     0.5841E-3
  4.867     0.5816E-3
  4.870     0.5791E-3
  4.873     0.5767E-3
  4.876     0.5742E-3
  4.878     0.5718E-3
  4.881     0.5694E-3
  4.884     0.5670E-3
  4.887     0.5646E-3
  4.890     0.5623E-3
  4.893     0.5599E-3
  4.895     0.5576E-3
  4.898     0.5553E-3
  4.901     0.5530E-3
  4.904     0.5507E-3
  4.907     0.5485E-3
  4.910     0.5463E-3
  4.912     0.5440E-3
  4.915     0.5418E-3
  4.918     0.5396E-3
  4.921     0.5375E-3
  4.924     0.5353E-3
  4.927     0.5332E-3
  4.929     0.5310E-3
  4.932     0.5289E-3
  4.935     0.5268E-3
  4.938     0.5248E-3
  4.941     0.5227E-3
  4.944     0.5207E-3
  4.946     0.5186E-3
  4.949     0.5166E-3
  4.952     0.5146E-3
  4.955     0.5126E-3
  4.958     0.5107E-3
  4.961     0.5087E-3
  4.963     0.5068E-3
  4.966     0.5049E-3
  4.969     0.5030E-3
  4.972     0.5011E-3
  4.975     0.4992E-3
  4.978     0.4973E-3
  4.980     0.4955E-3
  4.983     0.4937E-3
  4.986     0.4918E-3
  4.989     0.4900E-3
  4.992     0.4883E-3
  4.995     0.4865E-3
  4.997     0.4847E-3
  5.000     0.4830E-3
  5.003     0.4813E-3
  5.006     0.4796E-3
  5.009     0.4779E-3
  5.012     0.4762E-3
  5.014     0.4745E-3
  5.017     0.4729E-3
  5.020     0.4713E-3
  5.023     0.4696E-3
  5.026     0.4680E-3
  5.029     0.4665E-3
  5.031     0.4649E-3
  5.034     0.4633E-3
  5.037     0.4618E-3
  5.040     0.4603E-3
  5.043     0.4588E-3
  5.046     0.4573E-3
  5.048     0.4558E-3
  5.051     0.4544E-3
  5.054     0.4529E-3
  5.057     0.4515E-3
  5.060     0.4501E-3
  5.063     0.4487E-3
  5.065     0.4473E-3
  5.068     0.4460E-3
  5.071     0.4446E-3
  5.074     0.4433E-3
  5.077     0.4420E-3
  5.080     0.4407E-3
  5.082     0.4394E-3
  5.085     0.4382E-3
  5.088     0.4370E-3
  5.091     0.4357E-3
  5.094     0.4346E-3
  5.097     0.4334E-3
  5.099     0.4322E-3
  5.102     0.4311E-3
  5.105     0.4300E-3
  5.108     0.4289E-3
  5.111     0.4278E-3
  5.114     0.4268E-3
  5.116     0.4258E-3
  5.119     0.4248E-3
  5.122     0.4238E-3
  5.125     0.4229E-3
  5.128     0.4219E-3
  5.131     0.4210E-3
  5.133     0.4202E-3
  5.136     0.4193E-3
  5.139     0.4185E-3
  5.142     0.4177E-3
  5.145     0.4170E-3
  5.148     0.4162E-3
  5.150     0.4155E-3
  5.153     0.4149E-3
  5.156     0.4143E-3
  5.159     0.4137E-3
  5.162     0.4131E-3
  5.165     0.4126E-3
  5.167     0.4121E-3
  5.170     0.4117E-3
  5.173     0.4113E-3
  5.176     0.4110E-3
  5.179     0.4107E-3
  5.182     0.4104E-3
  5.184     0.4102E-3
  5.187     0.4101E-3
  5.190     0.4100E-3
  5.193     0.4100E-3
  5.196     0.4100E-3
  5.199     0.4101E-3
  5.201     0.4103E-3
  5.204     0.4105E-3
  5.207     0.4108E-3
  5.210     0.4112E-3
  5.213     0.4117E-3
  5.216     0.4123E-3
  5.218     0.4129E-3
  5.221     0.4137E-3
  5.224     0.4146E-3
  5.227     0.4155E-3
  5.230     0.4167E-3
  5.233     0.4179E-3
  5.236     0.4193E-3
  5.238     0.4208E-3
  5.241     0.4225E-3
  5.244     0.4243E-3
  5.247     0.4264E-3
  5.250     0.4286E-3
  5.253     0.4310E-3
  5.255     0.4337E-3
  5.258     0.4366E-3
  5.261     0.4398E-3
  5.264     0.4432E-3
  5.267     0.4470E-3
  5.270     0.4511E-3
  5.272     0.4556E-3
  5.275     0.4605E-3
  5.278     0.4658E-3
  5.281     0.4716E-3
  5.284     0.4779E-3
  5.287     0.4848E-3
  5.289     0.4924E-3
  5.292     0.5006E-3
  5.295     0.5096E-3
  5.298     0.5195E-3
  5.301     0.5304E-3
  5.304     0.5423E-3
  5.306     0.5554E-3
  5.309     0.5698E-3
  5.312     0.5858E-3
  5.315     0.6034E-3
  5.318     0.6229E-3
  5.321     0.6446E-3
  5.323     0.6686E-3
  5.326     0.6955E-3
  5.329     0.7255E-3
  5.332     0.7590E-3
  5.335     0.7966E-3
  5.338     0.8388E-3
  5.340     0.8863E-3
  5.343     0.9397E-3
  5.346     0.1000E-2
  5.349     0.1068E-2
  5.352     0.1144E-2
  5.355     0.1230E-2
  5.357     0.1327E-2
  5.360     0.1434E-2
  5.363     0.1551E-2
  5.366     0.1679E-2
  5.369     0.1815E-2
  5.372     0.1955E-2
  5.374     0.2093E-2
  5.377     0.2223E-2
  5.380     0.2333E-2
  5.383     0.2416E-2
  5.386     0.2461E-2
  5.389     0.2463E-2
  5.391     0.2423E-2
  5.394     0.2345E-2
  5.397     0.2237E-2
  5.400     0.2108E-2
  5.403     0.1969E-2
  5.406     0.1827E-2
  5.408     0.1688E-2
  5.411     0.1557E-2
  5.414     0.1436E-2
  5.417     0.1325E-2
  5.420     0.1225E-2
  5.423     0.1136E-2
  5.425     0.1056E-2
  5.428     0.9846E-3
  5.431     0.9213E-3
  5.434     0.8649E-3
  5.437     0.8146E-3
  5.440     0.7696E-3
  5.442     0.7295E-3
  5.445     0.6935E-3
  5.448     0.6611E-3
  5.451     0.6319E-3
  5.454     0.6055E-3
  5.457     0.5816E-3
  5.459     0.5599E-3
  5.462     0.5401E-3
  5.465     0.5220E-3
  5.468     0.5055E-3
  5.471     0.4903E-3
  5.474     0.4763E-3
  5.476     0.4635E-3
  5.479     0.4516E-3
  5.482     0.4405E-3
  5.485     0.4303E-3
  5.488     0.4208E-3
  5.491     0.4119E-3
  5.493     0.4036E-3
  5.496     0.3959E-3
  5.499     0.3886E-3
  5.502     0.3818E-3
  5.505     0.3753E-3
  5.508     0.3693E-3
  5.510     0.3636E-3
  5.513     0.3582E-3
  5.516     0.3531E-3
  5.519     0.3482E-3
  5.522     0.3436E-3
  5.525     0.3392E-3
  5.527     0.3351E-3
  5.530     0.3311E-3
  5.533     0.3273E-3
  5.536     0.3237E-3
  5.539     0.3203E-3
  5.542     0.3169E-3
  5.544     0.3138E-3
  5.547     0.3107E-3
  5.550     0.3078E-3
  5.553     0.3050E-3
  5.556     0.3022E-3
  5.559     0.2996E-3
  5.561     0.2971E-3
  5.564     0.2947E-3
  5.567     0.2923E-3
  5.570     0.2900E-3
  5.573     0.2878E-3
  5.576     0.2857E-3
  5.578     0.2836E-3
  5.581     0.2816E-3
  5.584     0.2797E-3
  5.587     0.2778E-3
  5.590     0.2759E-3
  5.593     0.2742E-3
  5.595     0.2724E-3
  5.598     0.2707E-3
  5.601     0.2691E-3
  5.604     0.2674E-3
  5.607     0.2659E-3
  5.610     0.2643E-3
  5.612     0.2628E-3
  5.615     0.2614E-3
  5.618     0.2599E-3
  5.621     0.2585E-3
  5.624     0.2571E-3
  5.627     0.2558E-3
  5.629     0.2545E-3
  5.632     0.2532E-3
  5.635     0.2519E-3
  5.638     0.2507E-3
  5.641     0.2495E-3
  5.644     0.2483E-3
  5.646     0.2471E-3
  5.649     0.2459E-3
  5.652     0.2448E-3
  5.655     0.2437E-3
  5.658     0.2426E-3
  5.661     0.2415E-3
  5.663     0.2404E-3
  5.666     0.2394E-3
  5.669     0.2383E-3
  5.672     0.2373E-3
  5.675     0.2363E-3
  5.678     0.2353E-3
  5.680     0.2343E-3
  5.683     0.2334E-3
  5.686     0.2324E-3
  5.689     0.2315E-3
  5.692     0.2306E-3
  5.695     0.2297E-3
  5.697     0.2288E-3
  5.700     0.2279E-3
  5.703     0.2270E-3
  5.706     0.2261E-3
  5.709     0.2253E-3
  5.712     0.2244E-3
  5.714     0.2236E-3
  5.717     0.2228E-3
  5.720     0.2219E-3
  5.723     0.2211E-3
  5.726     0.2203E-3
  5.729     0.2195E-3
  5.731     0.2187E-3
  5.734     0.2180E-3
  5.737     0.2172E-3
  5.740     0.2164E-3
  5.743     0.2157E-3
  5.746     0.2149E-3
  5.749     0.2142E-3
  5.751     0.2135E-3
  5.754     0.2127E-3
  5.757     0.2120E-3
  5.760     0.2113E-3
  5.763     0.2106E-3
  5.766     0.2099E-3
  5.768     0.2092E-3
  5.771     0.2085E-3
  5.774     0.2078E-3
  5.777     0.2071E-3
  5.780     0.2065E-3
  5.783     0.2058E-3
  5.785     0.2052E-3
  5.788     0.2045E-3
  5.791     0.2038E-3
  5.794     0.2032E-3
  5.797     0.2026E-3
  5.800     0.2019E-3
  5.802     0.2013E-3
  5.805     0.2007E-3
  5.808     0.2000E-3
  5.811     0.1994E-3
  5.814     0.1988E-3
  5.817     0.1982E-3
  5.819     0.1976E-3
  5.822     0.1970E-3
  5.825     0.1964E-3
  5.828     0.1958E-3
  5.831     0.1952E-3
  5.834     0.1947E-3
  5.836     0.1941E-3
  5.839     0.1935E-3
  5.842     0.1929E-3
  5.845     0.1924E-3
  5.848     0.1918E-3
  5.851     0.1912E-3
  5.853     0.1907E-3
  5.856     0.1901E-3
  5.859     0.1896E-3
  5.862     0.1890E-3
  5.865     0.1885E-3
  5.868     0.1879E-3
  5.870     0.1874E-3
  5.873     0.1869E-3
  5.876     0.1863E-3
  5.879     0.1858E-3
  5.882     0.1853E-3
  5.885     0.1848E-3
# 
# 04/27/2021 at 16:16 YPP @ lux-1 [start]
# 04/27/2021 at 16:16             [end]
#  
# Timing   [Min/Max/Average]: 03s/03s/03s
#
# .-Input file : amp.in
# | excitons                     # [R] Excitons
# | amplitude                    # [R] Amplitude
# | BoseTemp= 0.000000     eV    # Bosonic Temperature
# | States= "1 - 9"              # Index of the BS state(s)
# | #DipWeight                   #  Weight the contribution to the exciton WFs with the dipoles
# | Degen_Step=0.1000E-4   eV    # Maximum energy separation of two degenerate states
